# E (eV) pdos(E) 
-15.000  0.151E+01
-14.990  0.151E+01
-14.980  0.152E+01
-14.970  0.152E+01
-14.960  0.151E+01
-14.950  0.152E+01
-14.940  0.152E+01
-14.930  0.151E+01
-14.920  0.152E+01
-14.910  0.152E+01
-14.900  0.151E+01
-14.890  0.151E+01
-14.880  0.152E+01
-14.870  0.152E+01
-14.860  0.152E+01
-14.850  0.152E+01
-14.840  0.152E+01
-14.830  0.152E+01
-14.820  0.153E+01
-14.810  0.153E+01
-14.800  0.153E+01
-14.790  0.154E+01
-14.780  0.154E+01
-14.770  0.155E+01
-14.760  0.156E+01
-14.750  0.157E+01
-14.740  0.158E+01
-14.730  0.159E+01
-14.720  0.160E+01
-14.710  0.161E+01
-14.700  0.162E+01
-14.690  0.164E+01
-14.680  0.165E+01
-14.670  0.166E+01
-14.660  0.168E+01
-14.650  0.169E+01
-14.640  0.171E+01
-14.630  0.172E+01
-14.620  0.174E+01
-14.610  0.176E+01
-14.600  0.177E+01
-14.590  0.179E+01
-14.580  0.180E+01
-14.570  0.182E+01
-14.560  0.183E+01
-14.550  0.184E+01
-14.540  0.186E+01
-14.530  0.187E+01
-14.520  0.188E+01
-14.510  0.189E+01
-14.500  0.190E+01
-14.490  0.191E+01
-14.480  0.192E+01
-14.470  0.192E+01
-14.460  0.193E+01
-14.450  0.193E+01
-14.440  0.194E+01
-14.430  0.194E+01
-14.420  0.194E+01
-14.410  0.194E+01
-14.400  0.194E+01
-14.390  0.194E+01
-14.380  0.194E+01
-14.370  0.193E+01
-14.360  0.193E+01
-14.350  0.192E+01
-14.340  0.191E+01
-14.330  0.190E+01
-14.320  0.189E+01
-14.310  0.189E+01
-14.300  0.187E+01
-14.290  0.186E+01
-14.280  0.185E+01
-14.270  0.184E+01
-14.260  0.183E+01
-14.250  0.182E+01
-14.240  0.181E+01
-14.230  0.180E+01
-14.220  0.179E+01
-14.210  0.179E+01
-14.200  0.178E+01
-14.190  0.177E+01
-14.180  0.177E+01
-14.170  0.176E+01
-14.160  0.176E+01
-14.150  0.176E+01
-14.140  0.176E+01
-14.130  0.176E+01
-14.120  0.176E+01
-14.110  0.176E+01
-14.100  0.176E+01
-14.090  0.177E+01
-14.080  0.177E+01
-14.070  0.178E+01
-14.060  0.178E+01
-14.050  0.179E+01
-14.040  0.180E+01
-14.030  0.181E+01
-14.020  0.181E+01
-14.010  0.182E+01
-14.000  0.183E+01
-13.990  0.184E+01
-13.980  0.185E+01
-13.970  0.186E+01
-13.960  0.188E+01
-13.950  0.189E+01
-13.940  0.190E+01
-13.930  0.191E+01
-13.920  0.192E+01
-13.910  0.194E+01
-13.900  0.195E+01
-13.890  0.196E+01
-13.880  0.197E+01
-13.870  0.199E+01
-13.860  0.200E+01
-13.850  0.201E+01
-13.840  0.202E+01
-13.830  0.204E+01
-13.820  0.205E+01
-13.810  0.206E+01
-13.800  0.207E+01
-13.790  0.208E+01
-13.780  0.209E+01
-13.770  0.210E+01
-13.760  0.211E+01
-13.750  0.212E+01
-13.740  0.213E+01
-13.730  0.214E+01
-13.720  0.215E+01
-13.710  0.215E+01
-13.700  0.216E+01
-13.690  0.216E+01
-13.680  0.216E+01
-13.670  0.217E+01
-13.660  0.217E+01
-13.650  0.216E+01
-13.640  0.216E+01
-13.630  0.216E+01
-13.620  0.215E+01
-13.610  0.214E+01
-13.600  0.213E+01
-13.590  0.212E+01
-13.580  0.211E+01
-13.570  0.209E+01
-13.560  0.208E+01
-13.550  0.206E+01
-13.540  0.204E+01
-13.530  0.202E+01
-13.520  0.200E+01
-13.510  0.198E+01
-13.500  0.196E+01
-13.490  0.194E+01
-13.480  0.192E+01
-13.470  0.190E+01
-13.460  0.187E+01
-13.450  0.185E+01
-13.440  0.183E+01
-13.430  0.181E+01
-13.420  0.179E+01
-13.410  0.177E+01
-13.400  0.175E+01
-13.390  0.173E+01
-13.380  0.171E+01
-13.370  0.169E+01
-13.360  0.168E+01
-13.350  0.166E+01
-13.340  0.165E+01
-13.330  0.163E+01
-13.320  0.162E+01
-13.310  0.160E+01
-13.300  0.159E+01
-13.290  0.158E+01
-13.280  0.157E+01
-13.270  0.156E+01
-13.260  0.155E+01
-13.250  0.154E+01
-13.240  0.153E+01
-13.230  0.152E+01
-13.220  0.151E+01
-13.210  0.150E+01
-13.200  0.150E+01
-13.190  0.149E+01
-13.180  0.149E+01
-13.170  0.148E+01
-13.160  0.147E+01
-13.150  0.147E+01
-13.140  0.147E+01
-13.130  0.146E+01
-13.120  0.146E+01
-13.110  0.145E+01
-13.100  0.145E+01
-13.090  0.144E+01
-13.080  0.144E+01
-13.070  0.144E+01
-13.060  0.143E+01
-13.050  0.142E+01
-13.040  0.142E+01
-13.030  0.141E+01
-13.020  0.141E+01
-13.010  0.140E+01
-13.000  0.139E+01
-12.990  0.138E+01
-12.980  0.138E+01
-12.970  0.137E+01
-12.960  0.136E+01
-12.950  0.135E+01
-12.940  0.134E+01
-12.930  0.133E+01
-12.920  0.131E+01
-12.910  0.130E+01
-12.900  0.129E+01
-12.890  0.128E+01
-12.880  0.127E+01
-12.870  0.125E+01
-12.860  0.124E+01
-12.850  0.123E+01
-12.840  0.122E+01
-12.830  0.120E+01
-12.820  0.119E+01
-12.810  0.118E+01
-12.800  0.116E+01
-12.790  0.115E+01
-12.780  0.114E+01
-12.770  0.113E+01
-12.760  0.112E+01
-12.750  0.111E+01
-12.740  0.110E+01
-12.730  0.109E+01
-12.720  0.108E+01
-12.710  0.107E+01
-12.700  0.106E+01
-12.690  0.105E+01
-12.680  0.104E+01
-12.670  0.104E+01
-12.660  0.103E+01
-12.650  0.102E+01
-12.640  0.102E+01
-12.630  0.101E+01
-12.620  0.100E+01
-12.610  0.100E+01
-12.600  0.996E+00
-12.590  0.991E+00
-12.580  0.989E+00
-12.570  0.986E+00
-12.560  0.984E+00
-12.550  0.983E+00
-12.540  0.982E+00
-12.530  0.982E+00
-12.520  0.982E+00
-12.510  0.983E+00
-12.500  0.985E+00
-12.490  0.987E+00
-12.480  0.991E+00
-12.470  0.995E+00
-12.460  0.999E+00
-12.450  0.100E+01
-12.440  0.101E+01
-12.430  0.101E+01
-12.420  0.102E+01
-12.410  0.103E+01
-12.400  0.103E+01
-12.390  0.104E+01
-12.380  0.104E+01
-12.370  0.105E+01
-12.360  0.105E+01
-12.350  0.105E+01
-12.340  0.106E+01
-12.330  0.106E+01
-12.320  0.106E+01
-12.310  0.106E+01
-12.300  0.106E+01
-12.290  0.106E+01
-12.280  0.106E+01
-12.270  0.106E+01
-12.260  0.105E+01
-12.250  0.105E+01
-12.240  0.104E+01
-12.230  0.103E+01
-12.220  0.102E+01
-12.210  0.101E+01
-12.200  0.100E+01
-12.190  0.988E+00
-12.180  0.974E+00
-12.170  0.960E+00
-12.160  0.945E+00
-12.150  0.929E+00
-12.140  0.914E+00
-12.130  0.898E+00
-12.120  0.882E+00
-12.110  0.866E+00
-12.100  0.849E+00
-12.090  0.834E+00
-12.080  0.817E+00
-12.070  0.801E+00
-12.060  0.786E+00
-12.050  0.772E+00
-12.040  0.756E+00
-12.030  0.742E+00
-12.020  0.728E+00
-12.010  0.715E+00
-12.000  0.702E+00
-11.990  0.690E+00
-11.980  0.679E+00
-11.970  0.668E+00
-11.960  0.657E+00
-11.950  0.648E+00
-11.940  0.639E+00
-11.930  0.631E+00
-11.920  0.623E+00
-11.910  0.615E+00
-11.900  0.609E+00
-11.890  0.602E+00
-11.880  0.597E+00
-11.870  0.590E+00
-11.860  0.585E+00
-11.850  0.581E+00
-11.840  0.576E+00
-11.830  0.572E+00
-11.820  0.569E+00
-11.810  0.564E+00
-11.800  0.561E+00
-11.790  0.559E+00
-11.780  0.556E+00
-11.770  0.553E+00
-11.760  0.551E+00
-11.750  0.549E+00
-11.740  0.548E+00
-11.730  0.546E+00
-11.720  0.545E+00
-11.710  0.545E+00
-11.700  0.545E+00
-11.690  0.545E+00
-11.680  0.545E+00
-11.670  0.546E+00
-11.660  0.548E+00
-11.650  0.551E+00
-11.640  0.553E+00
-11.630  0.555E+00
-11.620  0.559E+00
-11.610  0.562E+00
-11.600  0.566E+00
-11.590  0.571E+00
-11.580  0.576E+00
-11.570  0.581E+00
-11.560  0.587E+00
-11.550  0.593E+00
-11.540  0.599E+00
-11.530  0.605E+00
-11.520  0.611E+00
-11.510  0.617E+00
-11.500  0.624E+00
-11.490  0.630E+00
-11.480  0.637E+00
-11.470  0.643E+00
-11.460  0.649E+00
-11.450  0.654E+00
-11.440  0.661E+00
-11.430  0.665E+00
-11.420  0.671E+00
-11.410  0.675E+00
-11.400  0.680E+00
-11.390  0.684E+00
-11.380  0.688E+00
-11.370  0.692E+00
-11.360  0.696E+00
-11.350  0.698E+00
-11.340  0.702E+00
-11.330  0.704E+00
-11.320  0.709E+00
-11.310  0.712E+00
-11.300  0.715E+00
-11.290  0.719E+00
-11.280  0.723E+00
-11.270  0.727E+00
-11.260  0.731E+00
-11.250  0.737E+00
-11.240  0.742E+00
-11.230  0.748E+00
-11.220  0.754E+00
-11.210  0.761E+00
-11.200  0.768E+00
-11.190  0.776E+00
-11.180  0.785E+00
-11.170  0.794E+00
-11.160  0.802E+00
-11.150  0.812E+00
-11.140  0.822E+00
-11.130  0.831E+00
-11.120  0.842E+00
-11.110  0.852E+00
-11.100  0.862E+00
-11.090  0.872E+00
-11.080  0.882E+00
-11.070  0.892E+00
-11.060  0.902E+00
-11.050  0.911E+00
-11.040  0.920E+00
-11.030  0.928E+00
-11.020  0.936E+00
-11.010  0.944E+00
-11.000  0.951E+00
-10.990  0.957E+00
-10.980  0.964E+00
-10.970  0.969E+00
-10.960  0.974E+00
-10.950  0.980E+00
-10.940  0.984E+00
-10.930  0.988E+00
-10.920  0.992E+00
-10.910  0.995E+00
-10.900  0.998E+00
-10.890  0.100E+01
-10.880  0.100E+01
-10.870  0.101E+01
-10.860  0.101E+01
-10.850  0.101E+01
-10.840  0.101E+01
-10.830  0.101E+01
-10.820  0.101E+01
-10.810  0.101E+01
-10.800  0.101E+01
-10.790  0.101E+01
-10.780  0.101E+01
-10.770  0.100E+01
-10.760  0.999E+00
-10.750  0.996E+00
-10.740  0.990E+00
-10.730  0.985E+00
-10.720  0.978E+00
-10.710  0.971E+00
-10.700  0.963E+00
-10.690  0.955E+00
-10.680  0.946E+00
-10.670  0.936E+00
-10.660  0.925E+00
-10.650  0.914E+00
-10.640  0.902E+00
-10.630  0.891E+00
-10.620  0.879E+00
-10.610  0.866E+00
-10.600  0.855E+00
-10.590  0.842E+00
-10.580  0.830E+00
-10.570  0.818E+00
-10.560  0.805E+00
-10.550  0.794E+00
-10.540  0.783E+00
-10.530  0.772E+00
-10.520  0.761E+00
-10.510  0.751E+00
-10.500  0.741E+00
-10.490  0.732E+00
-10.480  0.724E+00
-10.470  0.715E+00
-10.460  0.708E+00
-10.450  0.702E+00
-10.440  0.695E+00
-10.430  0.690E+00
-10.420  0.684E+00
-10.410  0.679E+00
-10.400  0.675E+00
-10.390  0.671E+00
-10.380  0.669E+00
-10.370  0.665E+00
-10.360  0.663E+00
-10.350  0.662E+00
-10.340  0.660E+00
-10.330  0.658E+00
-10.320  0.657E+00
-10.310  0.657E+00
-10.300  0.656E+00
-10.290  0.656E+00
-10.280  0.656E+00
-10.270  0.655E+00
-10.260  0.656E+00
-10.250  0.655E+00
-10.240  0.655E+00
-10.230  0.654E+00
-10.220  0.652E+00
-10.210  0.652E+00
-10.200  0.650E+00
-10.190  0.648E+00
-10.180  0.646E+00
-10.170  0.643E+00
-10.160  0.640E+00
-10.150  0.636E+00
-10.140  0.631E+00
-10.130  0.627E+00
-10.120  0.621E+00
-10.110  0.615E+00
-10.100  0.608E+00
-10.090  0.601E+00
-10.080  0.594E+00
-10.070  0.586E+00
-10.060  0.578E+00
-10.050  0.570E+00
-10.040  0.561E+00
-10.030  0.553E+00
-10.020  0.544E+00
-10.010  0.536E+00
-10.000  0.527E+00
 -9.990  0.519E+00
 -9.980  0.510E+00
 -9.970  0.503E+00
 -9.960  0.495E+00
 -9.950  0.488E+00
 -9.940  0.481E+00
 -9.930  0.474E+00
 -9.920  0.468E+00
 -9.910  0.463E+00
 -9.900  0.457E+00
 -9.890  0.453E+00
 -9.880  0.449E+00
 -9.870  0.445E+00
 -9.860  0.441E+00
 -9.850  0.438E+00
 -9.840  0.436E+00
 -9.830  0.434E+00
 -9.820  0.432E+00
 -9.810  0.430E+00
 -9.800  0.429E+00
 -9.790  0.428E+00
 -9.780  0.428E+00
 -9.770  0.427E+00
 -9.760  0.427E+00
 -9.750  0.427E+00
 -9.740  0.428E+00
 -9.730  0.428E+00
 -9.720  0.429E+00
 -9.710  0.429E+00
 -9.700  0.430E+00
 -9.690  0.432E+00
 -9.680  0.432E+00
 -9.670  0.434E+00
 -9.660  0.435E+00
 -9.650  0.436E+00
 -9.640  0.438E+00
 -9.630  0.439E+00
 -9.620  0.441E+00
 -9.610  0.441E+00
 -9.600  0.443E+00
 -9.590  0.444E+00
 -9.580  0.445E+00
 -9.570  0.447E+00
 -9.560  0.448E+00
 -9.550  0.450E+00
 -9.540  0.451E+00
 -9.530  0.452E+00
 -9.520  0.453E+00
 -9.510  0.455E+00
 -9.500  0.457E+00
 -9.490  0.458E+00
 -9.480  0.460E+00
 -9.470  0.462E+00
 -9.460  0.464E+00
 -9.450  0.466E+00
 -9.440  0.468E+00
 -9.430  0.471E+00
 -9.420  0.473E+00
 -9.410  0.475E+00
 -9.400  0.478E+00
 -9.390  0.481E+00
 -9.380  0.484E+00
 -9.370  0.487E+00
 -9.360  0.490E+00
 -9.350  0.493E+00
 -9.340  0.496E+00
 -9.330  0.499E+00
 -9.320  0.501E+00
 -9.310  0.505E+00
 -9.300  0.507E+00
 -9.290  0.510E+00
 -9.280  0.513E+00
 -9.270  0.515E+00
 -9.260  0.518E+00
 -9.250  0.520E+00
 -9.240  0.522E+00
 -9.230  0.524E+00
 -9.220  0.526E+00
 -9.210  0.529E+00
 -9.200  0.530E+00
 -9.190  0.533E+00
 -9.180  0.535E+00
 -9.170  0.537E+00
 -9.160  0.539E+00
 -9.150  0.541E+00
 -9.140  0.544E+00
 -9.130  0.546E+00
 -9.120  0.549E+00
 -9.110  0.552E+00
 -9.100  0.555E+00
 -9.090  0.558E+00
 -9.080  0.561E+00
 -9.070  0.564E+00
 -9.060  0.566E+00
 -9.050  0.570E+00
 -9.040  0.573E+00
 -9.030  0.576E+00
 -9.020  0.579E+00
 -9.010  0.582E+00
 -9.000  0.585E+00
 -8.990  0.588E+00
 -8.980  0.590E+00
 -8.970  0.593E+00
 -8.960  0.595E+00
 -8.950  0.597E+00
 -8.940  0.598E+00
 -8.930  0.600E+00
 -8.920  0.600E+00
 -8.910  0.600E+00
 -8.900  0.600E+00
 -8.890  0.600E+00
 -8.880  0.599E+00
 -8.870  0.598E+00
 -8.860  0.596E+00
 -8.850  0.594E+00
 -8.840  0.592E+00
 -8.830  0.589E+00
 -8.820  0.587E+00
 -8.810  0.584E+00
 -8.800  0.580E+00
 -8.790  0.576E+00
 -8.780  0.572E+00
 -8.770  0.568E+00
 -8.760  0.564E+00
 -8.750  0.559E+00
 -8.740  0.554E+00
 -8.730  0.549E+00
 -8.720  0.544E+00
 -8.710  0.539E+00
 -8.700  0.534E+00
 -8.690  0.529E+00
 -8.680  0.524E+00
 -8.670  0.518E+00
 -8.660  0.513E+00
 -8.650  0.507E+00
 -8.640  0.502E+00
 -8.630  0.496E+00
 -8.620  0.491E+00
 -8.610  0.485E+00
 -8.600  0.479E+00
 -8.590  0.474E+00
 -8.580  0.468E+00
 -8.570  0.462E+00
 -8.560  0.457E+00
 -8.550  0.452E+00
 -8.540  0.446E+00
 -8.530  0.440E+00
 -8.520  0.435E+00
 -8.510  0.429E+00
 -8.500  0.424E+00
 -8.490  0.419E+00
 -8.480  0.414E+00
 -8.470  0.409E+00
 -8.460  0.404E+00
 -8.450  0.399E+00
 -8.440  0.394E+00
 -8.430  0.390E+00
 -8.420  0.385E+00
 -8.410  0.379E+00
 -8.400  0.375E+00
 -8.390  0.370E+00
 -8.380  0.365E+00
 -8.370  0.360E+00
 -8.360  0.356E+00
 -8.350  0.351E+00
 -8.340  0.346E+00
 -8.330  0.341E+00
 -8.320  0.336E+00
 -8.310  0.331E+00
 -8.300  0.326E+00
 -8.290  0.321E+00
 -8.280  0.315E+00
 -8.270  0.310E+00
 -8.260  0.305E+00
 -8.250  0.300E+00
 -8.240  0.294E+00
 -8.230  0.289E+00
 -8.220  0.284E+00
 -8.210  0.279E+00
 -8.200  0.274E+00
 -8.190  0.268E+00
 -8.180  0.263E+00
 -8.170  0.258E+00
 -8.160  0.253E+00
 -8.150  0.248E+00
 -8.140  0.243E+00
 -8.130  0.239E+00
 -8.120  0.234E+00
 -8.110  0.229E+00
 -8.100  0.225E+00
 -8.090  0.221E+00
 -8.080  0.216E+00
 -8.070  0.212E+00
 -8.060  0.209E+00
 -8.050  0.205E+00
 -8.040  0.201E+00
 -8.030  0.198E+00
 -8.020  0.194E+00
 -8.010  0.191E+00
 -8.000  0.188E+00
 -7.990  0.185E+00
 -7.980  0.182E+00
 -7.970  0.179E+00
 -7.960  0.177E+00
 -7.950  0.174E+00
 -7.940  0.172E+00
 -7.930  0.170E+00
 -7.920  0.168E+00
 -7.910  0.166E+00
 -7.900  0.164E+00
 -7.890  0.162E+00
 -7.880  0.160E+00
 -7.870  0.158E+00
 -7.860  0.156E+00
 -7.850  0.154E+00
 -7.840  0.152E+00
 -7.830  0.150E+00
 -7.820  0.148E+00
 -7.810  0.146E+00
 -7.800  0.144E+00
 -7.790  0.141E+00
 -7.780  0.139E+00
 -7.770  0.137E+00
 -7.760  0.135E+00
 -7.750  0.133E+00
 -7.740  0.130E+00
 -7.730  0.128E+00
 -7.720  0.125E+00
 -7.710  0.123E+00
 -7.700  0.121E+00
 -7.690  0.118E+00
 -7.680  0.116E+00
 -7.670  0.114E+00
 -7.660  0.111E+00
 -7.650  0.109E+00
 -7.640  0.107E+00
 -7.630  0.105E+00
 -7.620  0.102E+00
 -7.610  0.100E+00
 -7.600  0.986E-01
 -7.590  0.966E-01
 -7.580  0.948E-01
 -7.570  0.932E-01
 -7.560  0.916E-01
 -7.550  0.900E-01
 -7.540  0.885E-01
 -7.530  0.871E-01
 -7.520  0.858E-01
 -7.510  0.845E-01
 -7.500  0.832E-01
 -7.490  0.820E-01
 -7.480  0.808E-01
 -7.470  0.796E-01
 -7.460  0.784E-01
 -7.450  0.772E-01
 -7.440  0.761E-01
 -7.430  0.748E-01
 -7.420  0.735E-01
 -7.410  0.723E-01
 -7.400  0.710E-01
 -7.390  0.697E-01
 -7.380  0.683E-01
 -7.370  0.669E-01
 -7.360  0.655E-01
 -7.350  0.641E-01
 -7.340  0.627E-01
 -7.330  0.612E-01
 -7.320  0.599E-01
 -7.310  0.585E-01
 -7.300  0.571E-01
 -7.290  0.558E-01
 -7.280  0.544E-01
 -7.270  0.532E-01
 -7.260  0.520E-01
 -7.250  0.508E-01
 -7.240  0.497E-01
 -7.230  0.486E-01
 -7.220  0.475E-01
 -7.210  0.466E-01
 -7.200  0.457E-01
 -7.190  0.448E-01
 -7.180  0.439E-01
 -7.170  0.431E-01
 -7.160  0.422E-01
 -7.150  0.414E-01
 -7.140  0.407E-01
 -7.130  0.398E-01
 -7.120  0.390E-01
 -7.110  0.381E-01
 -7.100  0.373E-01
 -7.090  0.365E-01
 -7.080  0.356E-01
 -7.070  0.347E-01
 -7.060  0.338E-01
 -7.050  0.328E-01
 -7.040  0.319E-01
 -7.030  0.310E-01
 -7.020  0.300E-01
 -7.010  0.290E-01
 -7.000  0.280E-01
 -6.990  0.270E-01
 -6.980  0.260E-01
 -6.970  0.250E-01
 -6.960  0.240E-01
 -6.950  0.230E-01
 -6.940  0.221E-01
 -6.930  0.211E-01
 -6.920  0.202E-01
 -6.910  0.193E-01
 -6.900  0.184E-01
 -6.890  0.176E-01
 -6.880  0.167E-01
 -6.870  0.159E-01
 -6.860  0.152E-01
 -6.850  0.144E-01
 -6.840  0.137E-01
 -6.830  0.130E-01
 -6.820  0.123E-01
 -6.810  0.117E-01
 -6.800  0.111E-01
 -6.790  0.105E-01
 -6.780  0.988E-02
 -6.770  0.932E-02
 -6.760  0.877E-02
 -6.750  0.824E-02
 -6.740  0.773E-02
 -6.730  0.724E-02
 -6.720  0.676E-02
 -6.710  0.630E-02
 -6.700  0.585E-02
 -6.690  0.543E-02
 -6.680  0.502E-02
 -6.670  0.463E-02
 -6.660  0.425E-02
 -6.650  0.389E-02
 -6.640  0.356E-02
 -6.630  0.324E-02
 -6.620  0.293E-02
 -6.610  0.265E-02
 -6.600  0.239E-02
 -6.590  0.214E-02
 -6.580  0.191E-02
 -6.570  0.170E-02
 -6.560  0.151E-02
 -6.550  0.133E-02
 -6.540  0.117E-02
 -6.530  0.103E-02
 -6.520  0.894E-03
 -6.510  0.777E-03
 -6.500  0.671E-03
 -6.490  0.579E-03
 -6.480  0.497E-03
 -6.470  0.424E-03
 -6.460  0.361E-03
 -6.450  0.306E-03
 -6.440  0.258E-03
 -6.430  0.217E-03
 -6.420  0.181E-03
 -6.410  0.151E-03
 -6.400  0.125E-03
 -6.390  0.104E-03
 -6.380  0.852E-04
 -6.370  0.698E-04
 -6.360  0.570E-04
 -6.350  0.463E-04
 -6.340  0.375E-04
 -6.330  0.301E-04
 -6.320  0.242E-04
 -6.310  0.193E-04
 -6.300  0.154E-04
 -6.290  0.122E-04
 -6.280  0.963E-05
 -6.270  0.757E-05
 -6.260  0.592E-05
 -6.250  0.461E-05
 -6.240  0.358E-05
 -6.230  0.277E-05
 -6.220  0.213E-05
 -6.210  0.164E-05
 -6.200  0.125E-05
 -6.190  0.949E-06
 -6.180  0.719E-06
 -6.170  0.542E-06
 -6.160  0.407E-06
 -6.150  0.304E-06
 -6.140  0.227E-06
 -6.130  0.168E-06
 -6.120  0.124E-06
 -6.110  0.911E-07
 -6.100  0.668E-07
 -6.090  0.487E-07
 -6.080  0.353E-07
 -6.070  0.256E-07
 -6.060  0.184E-07
 -6.050  0.132E-07
 -6.040  0.940E-08
 -6.030  0.667E-08
 -6.020  0.472E-08
 -6.010  0.333E-08
 -6.000  0.233E-08
 -5.990  0.163E-08
 -5.980  0.113E-08
 -5.970  0.783E-09
 -5.960  0.539E-09
 -5.950  0.370E-09
 -5.940  0.253E-09
 -5.930  0.172E-09
 -5.920  0.116E-09
 -5.910  0.781E-10
 -5.900  0.524E-10
 -5.890  0.349E-10
 -5.880  0.232E-10
 -5.870  0.154E-10
 -5.860  0.101E-10
 -5.850  0.662E-11
 -5.840  0.432E-11
 -5.830  0.280E-11
 -5.820  0.181E-11
 -5.810  0.116E-11
 -5.800  0.739E-12
 -5.790  0.448E-12
 -5.780  0.285E-12
 -5.770  0.180E-12
 -5.760  0.114E-12
 -5.750  0.712E-13
 -5.740  0.445E-13
 -5.730  0.276E-13
 -5.720  0.170E-13
 -5.710  0.105E-13
 -5.700  0.467E-14
 -5.690  0.286E-14
 -5.680  0.174E-14
 -5.670  0.106E-14
 -5.660  0.000E+00
 -5.650  0.000E+00
 -5.640  0.000E+00
 -5.630  0.000E+00
 -5.620  0.000E+00
 -5.610  0.000E+00
 -5.600  0.000E+00
 -5.590  0.000E+00
 -5.580  0.000E+00
 -5.570  0.000E+00
 -5.560  0.000E+00
 -5.550  0.000E+00
 -5.540  0.000E+00
 -5.530  0.000E+00
 -5.520  0.000E+00
 -5.510  0.000E+00
 -5.500  0.000E+00
 -5.490  0.000E+00
 -5.480  0.000E+00
 -5.470  0.000E+00
 -5.460  0.000E+00
 -5.450  0.000E+00
 -5.440  0.000E+00
 -5.430  0.000E+00
 -5.420  0.000E+00
 -5.410  0.000E+00
 -5.400  0.000E+00
 -5.390  0.000E+00
 -5.380  0.000E+00
 -5.370  0.000E+00
 -5.360  0.000E+00
 -5.350  0.000E+00
 -5.340  0.000E+00
 -5.330  0.000E+00
 -5.320  0.000E+00
 -5.310  0.000E+00
 -5.300  0.000E+00
 -5.290  0.000E+00
 -5.280  0.000E+00
 -5.270  0.000E+00
 -5.260  0.000E+00
 -5.250  0.000E+00
 -5.240  0.000E+00
 -5.230  0.000E+00
 -5.220  0.000E+00
 -5.210  0.000E+00
 -5.200  0.000E+00
 -5.190  0.000E+00
 -5.180  0.000E+00
 -5.170  0.000E+00
 -5.160  0.000E+00
 -5.150  0.000E+00
 -5.140  0.000E+00
 -5.130  0.000E+00
 -5.120  0.000E+00
 -5.110  0.000E+00
 -5.100  0.000E+00
 -5.090  0.000E+00
 -5.080  0.000E+00
 -5.070  0.000E+00
 -5.060  0.000E+00
 -5.050  0.000E+00
 -5.040  0.000E+00
 -5.030  0.000E+00
 -5.020  0.000E+00
 -5.010  0.000E+00
 -5.000  0.000E+00
 -4.990  0.000E+00
 -4.980  0.000E+00
 -4.970  0.000E+00
 -4.960  0.000E+00
 -4.950  0.000E+00
 -4.940  0.000E+00
 -4.930  0.000E+00
 -4.920  0.000E+00
 -4.910  0.000E+00
 -4.900  0.000E+00
 -4.890  0.000E+00
 -4.880  0.000E+00
 -4.870  0.000E+00
 -4.860  0.000E+00
 -4.850  0.000E+00
 -4.840  0.000E+00
 -4.830  0.000E+00
 -4.820  0.000E+00
 -4.810  0.000E+00
 -4.800  0.000E+00
 -4.790  0.000E+00
 -4.780  0.000E+00
 -4.770  0.000E+00
 -4.760  0.000E+00
 -4.750  0.000E+00
 -4.740  0.000E+00
 -4.730  0.000E+00
 -4.720  0.000E+00
 -4.710  0.000E+00
 -4.700  0.000E+00
 -4.690  0.000E+00
 -4.680  0.000E+00
 -4.670  0.000E+00
 -4.660  0.000E+00
 -4.650  0.000E+00
 -4.640  0.000E+00
 -4.630  0.000E+00
 -4.620  0.000E+00
 -4.610  0.000E+00
 -4.600  0.000E+00
 -4.590  0.000E+00
 -4.580  0.000E+00
 -4.570  0.000E+00
 -4.560  0.000E+00
 -4.550  0.000E+00
 -4.540  0.000E+00
 -4.530  0.000E+00
 -4.520  0.000E+00
 -4.510  0.000E+00
 -4.500  0.000E+00
 -4.490  0.000E+00
 -4.480  0.000E+00
 -4.470  0.000E+00
 -4.460  0.000E+00
 -4.450  0.000E+00
 -4.440  0.000E+00
 -4.430  0.000E+00
 -4.420  0.000E+00
 -4.410  0.000E+00
 -4.400  0.000E+00
 -4.390  0.000E+00
 -4.380  0.000E+00
 -4.370  0.000E+00
 -4.360  0.000E+00
 -4.350  0.000E+00
 -4.340  0.000E+00
 -4.330  0.000E+00
 -4.320  0.000E+00
 -4.310  0.000E+00
 -4.300  0.000E+00
 -4.290  0.000E+00
 -4.280  0.000E+00
 -4.270  0.000E+00
 -4.260  0.000E+00
 -4.250  0.000E+00
 -4.240  0.000E+00
 -4.230  0.000E+00
 -4.220  0.000E+00
 -4.210  0.000E+00
 -4.200  0.000E+00
 -4.190  0.000E+00
 -4.180  0.000E+00
 -4.170  0.000E+00
 -4.160  0.000E+00
 -4.150  0.000E+00
 -4.140  0.000E+00
 -4.130  0.000E+00
 -4.120  0.000E+00
 -4.110  0.000E+00
 -4.100  0.000E+00
 -4.090  0.000E+00
 -4.080  0.000E+00
 -4.070  0.000E+00
 -4.060  0.000E+00
 -4.050  0.000E+00
 -4.040  0.000E+00
 -4.030  0.000E+00
 -4.020  0.000E+00
 -4.010  0.000E+00
 -4.000  0.000E+00
 -3.990  0.000E+00
 -3.980  0.000E+00
 -3.970  0.000E+00
 -3.960  0.000E+00
 -3.950  0.000E+00
 -3.940  0.000E+00
 -3.930  0.912E-13
 -3.920  0.151E-12
 -3.910  0.248E-12
 -3.900  0.406E-12
 -3.890  0.663E-12
 -3.880  0.107E-11
 -3.870  0.173E-11
 -3.860  0.278E-11
 -3.850  0.444E-11
 -3.840  0.754E-11
 -3.830  0.120E-10
 -3.820  0.189E-10
 -3.810  0.296E-10
 -3.800  0.464E-10
 -3.790  0.722E-10
 -3.780  0.112E-09
 -3.770  0.172E-09
 -3.760  0.263E-09
 -3.750  0.402E-09
 -3.740  0.611E-09
 -3.730  0.923E-09
 -3.720  0.139E-08
 -3.710  0.208E-08
 -3.700  0.309E-08
 -3.690  0.459E-08
 -3.680  0.676E-08
 -3.670  0.993E-08
 -3.660  0.145E-07
 -3.650  0.211E-07
 -3.640  0.305E-07
 -3.630  0.440E-07
 -3.620  0.631E-07
 -3.610  0.900E-07
 -3.600  0.128E-06
 -3.590  0.181E-06
 -3.580  0.254E-06
 -3.570  0.356E-06
 -3.560  0.496E-06
 -3.550  0.689E-06
 -3.540  0.952E-06
 -3.530  0.131E-05
 -3.520  0.179E-05
 -3.510  0.244E-05
 -3.500  0.331E-05
 -3.490  0.446E-05
 -3.480  0.599E-05
 -3.470  0.802E-05
 -3.460  0.107E-04
 -3.450  0.141E-04
 -3.440  0.186E-04
 -3.430  0.245E-04
 -3.420  0.320E-04
 -3.410  0.417E-04
 -3.400  0.540E-04
 -3.390  0.696E-04
 -3.380  0.893E-04
 -3.370  0.114E-03
 -3.360  0.145E-03
 -3.350  0.184E-03
 -3.340  0.232E-03
 -3.330  0.291E-03
 -3.320  0.364E-03
 -3.310  0.453E-03
 -3.300  0.561E-03
 -3.290  0.692E-03
 -3.280  0.850E-03
 -3.270  0.104E-02
 -3.260  0.127E-02
 -3.250  0.153E-02
 -3.240  0.185E-02
 -3.230  0.222E-02
 -3.220  0.266E-02
 -3.210  0.317E-02
 -3.200  0.376E-02
 -3.190  0.444E-02
 -3.180  0.522E-02
 -3.170  0.612E-02
 -3.160  0.714E-02
 -3.150  0.829E-02
 -3.140  0.959E-02
 -3.130  0.110E-01
 -3.120  0.127E-01
 -3.110  0.145E-01
 -3.100  0.164E-01
 -3.090  0.186E-01
 -3.080  0.210E-01
 -3.070  0.236E-01
 -3.060  0.265E-01
 -3.050  0.295E-01
 -3.040  0.328E-01
 -3.030  0.363E-01
 -3.020  0.401E-01
 -3.010  0.440E-01
 -3.000  0.482E-01
 -2.990  0.526E-01
 -2.980  0.572E-01
 -2.970  0.620E-01
 -2.960  0.670E-01
 -2.950  0.722E-01
 -2.940  0.775E-01
 -2.930  0.829E-01
 -2.920  0.886E-01
 -2.910  0.943E-01
 -2.900  0.100E+00
 -2.890  0.106E+00
 -2.880  0.112E+00
 -2.870  0.118E+00
 -2.860  0.125E+00
 -2.850  0.131E+00
 -2.840  0.138E+00
 -2.830  0.144E+00
 -2.820  0.151E+00
 -2.810  0.158E+00
 -2.800  0.165E+00
 -2.790  0.172E+00
 -2.780  0.179E+00
 -2.770  0.187E+00
 -2.760  0.195E+00
 -2.750  0.203E+00
 -2.740  0.211E+00
 -2.730  0.220E+00
 -2.720  0.230E+00
 -2.710  0.240E+00
 -2.700  0.250E+00
 -2.690  0.261E+00
 -2.680  0.272E+00
 -2.670  0.284E+00
 -2.660  0.297E+00
 -2.650  0.310E+00
 -2.640  0.325E+00
 -2.630  0.340E+00
 -2.620  0.356E+00
 -2.610  0.372E+00
 -2.600  0.389E+00
 -2.590  0.407E+00
 -2.580  0.426E+00
 -2.570  0.446E+00
 -2.560  0.467E+00
 -2.550  0.488E+00
 -2.540  0.510E+00
 -2.530  0.533E+00
 -2.520  0.556E+00
 -2.510  0.579E+00
 -2.500  0.604E+00
 -2.490  0.628E+00
 -2.480  0.653E+00
 -2.470  0.679E+00
 -2.460  0.704E+00
 -2.450  0.730E+00
 -2.440  0.755E+00
 -2.430  0.781E+00
 -2.420  0.808E+00
 -2.410  0.834E+00
 -2.400  0.861E+00
 -2.390  0.887E+00
 -2.380  0.914E+00
 -2.370  0.941E+00
 -2.360  0.967E+00
 -2.350  0.994E+00
 -2.340  0.102E+01
 -2.330  0.105E+01
 -2.320  0.107E+01
 -2.310  0.110E+01
 -2.300  0.113E+01
 -2.290  0.116E+01
 -2.280  0.118E+01
 -2.270  0.121E+01
 -2.260  0.123E+01
 -2.250  0.126E+01
 -2.240  0.129E+01
 -2.230  0.131E+01
 -2.220  0.134E+01
 -2.210  0.136E+01
 -2.200  0.138E+01
 -2.190  0.141E+01
 -2.180  0.143E+01
 -2.170  0.145E+01
 -2.160  0.147E+01
 -2.150  0.148E+01
 -2.140  0.150E+01
 -2.130  0.151E+01
 -2.120  0.153E+01
 -2.110  0.154E+01
 -2.100  0.155E+01
 -2.090  0.156E+01
 -2.080  0.157E+01
 -2.070  0.157E+01
 -2.060  0.158E+01
 -2.050  0.158E+01
 -2.040  0.158E+01
 -2.030  0.158E+01
 -2.020  0.159E+01
 -2.010  0.159E+01
 -2.000  0.159E+01
 -1.990  0.159E+01
 -1.980  0.159E+01
 -1.970  0.159E+01
 -1.960  0.160E+01
 -1.950  0.160E+01
 -1.940  0.161E+01
 -1.930  0.162E+01
 -1.920  0.163E+01
 -1.910  0.164E+01
 -1.900  0.165E+01
 -1.890  0.166E+01
 -1.880  0.168E+01
 -1.870  0.170E+01
 -1.860  0.172E+01
 -1.850  0.174E+01
 -1.840  0.175E+01
 -1.830  0.178E+01
 -1.820  0.180E+01
 -1.810  0.182E+01
 -1.800  0.184E+01
 -1.790  0.186E+01
 -1.780  0.188E+01
 -1.770  0.189E+01
 -1.760  0.191E+01
 -1.750  0.192E+01
 -1.740  0.193E+01
 -1.730  0.194E+01
 -1.720  0.195E+01
 -1.710  0.195E+01
 -1.700  0.195E+01
 -1.690  0.195E+01
 -1.680  0.194E+01
 -1.670  0.193E+01
 -1.660  0.192E+01
 -1.650  0.191E+01
 -1.640  0.189E+01
 -1.630  0.188E+01
 -1.620  0.186E+01
 -1.610  0.183E+01
 -1.600  0.181E+01
 -1.590  0.179E+01
 -1.580  0.176E+01
 -1.570  0.174E+01
 -1.560  0.172E+01
 -1.550  0.169E+01
 -1.540  0.167E+01
 -1.530  0.165E+01
 -1.520  0.163E+01
 -1.510  0.161E+01
 -1.500  0.159E+01
 -1.490  0.157E+01
 -1.480  0.156E+01
 -1.470  0.155E+01
 -1.460  0.153E+01
 -1.450  0.152E+01
 -1.440  0.151E+01
 -1.430  0.150E+01
 -1.420  0.150E+01
 -1.410  0.149E+01
 -1.400  0.149E+01
 -1.390  0.148E+01
 -1.380  0.148E+01
 -1.370  0.147E+01
 -1.360  0.146E+01
 -1.350  0.146E+01
 -1.340  0.145E+01
 -1.330  0.145E+01
 -1.320  0.144E+01
 -1.310  0.143E+01
 -1.300  0.142E+01
 -1.290  0.141E+01
 -1.280  0.140E+01
 -1.270  0.139E+01
 -1.260  0.137E+01
 -1.250  0.136E+01
 -1.240  0.135E+01
 -1.230  0.134E+01
 -1.220  0.133E+01
 -1.210  0.132E+01
 -1.200  0.131E+01
 -1.190  0.130E+01
 -1.180  0.129E+01
 -1.170  0.128E+01
 -1.160  0.128E+01
 -1.150  0.128E+01
 -1.140  0.128E+01
 -1.130  0.128E+01
 -1.120  0.128E+01
 -1.110  0.128E+01
 -1.100  0.129E+01
 -1.090  0.130E+01
 -1.080  0.131E+01
 -1.070  0.133E+01
 -1.060  0.134E+01
 -1.050  0.136E+01
 -1.040  0.138E+01
 -1.030  0.140E+01
 -1.020  0.142E+01
 -1.010  0.144E+01
 -1.000  0.146E+01
 -0.990  0.148E+01
 -0.980  0.151E+01
 -0.970  0.153E+01
 -0.960  0.156E+01
 -0.950  0.158E+01
 -0.940  0.161E+01
 -0.930  0.163E+01
 -0.920  0.166E+01
 -0.910  0.168E+01
 -0.900  0.170E+01
 -0.890  0.173E+01
 -0.880  0.175E+01
 -0.870  0.177E+01
 -0.860  0.179E+01
 -0.850  0.181E+01
 -0.840  0.183E+01
 -0.830  0.185E+01
 -0.820  0.187E+01
 -0.810  0.188E+01
 -0.800  0.190E+01
 -0.790  0.191E+01
 -0.780  0.193E+01
 -0.770  0.194E+01
 -0.760  0.196E+01
 -0.750  0.197E+01
 -0.740  0.198E+01
 -0.730  0.200E+01
 -0.720  0.201E+01
 -0.710  0.203E+01
 -0.700  0.204E+01
 -0.690  0.206E+01
 -0.680  0.208E+01
 -0.670  0.210E+01
 -0.660  0.211E+01
 -0.650  0.213E+01
 -0.640  0.215E+01
 -0.630  0.217E+01
 -0.620  0.220E+01
 -0.610  0.222E+01
 -0.600  0.224E+01
 -0.590  0.227E+01
 -0.580  0.230E+01
 -0.570  0.233E+01
 -0.560  0.235E+01
 -0.550  0.238E+01
 -0.540  0.241E+01
 -0.530  0.244E+01
 -0.520  0.247E+01
 -0.510  0.250E+01
 -0.500  0.253E+01
 -0.490  0.256E+01
 -0.480  0.259E+01
 -0.470  0.262E+01
 -0.460  0.265E+01
 -0.450  0.268E+01
 -0.440  0.271E+01
 -0.430  0.275E+01
 -0.420  0.277E+01
 -0.410  0.280E+01
 -0.400  0.283E+01
 -0.390  0.286E+01
 -0.380  0.289E+01
 -0.370  0.292E+01
 -0.360  0.296E+01
 -0.350  0.299E+01
 -0.340  0.302E+01
 -0.330  0.305E+01
 -0.320  0.308E+01
 -0.310  0.312E+01
 -0.300  0.315E+01
 -0.290  0.318E+01
 -0.280  0.322E+01
 -0.270  0.325E+01
 -0.260  0.329E+01
 -0.250  0.333E+01
 -0.240  0.336E+01
 -0.230  0.340E+01
 -0.220  0.344E+01
 -0.210  0.347E+01
 -0.200  0.351E+01
 -0.190  0.355E+01
 -0.180  0.359E+01
 -0.170  0.362E+01
 -0.160  0.366E+01
 -0.150  0.370E+01
 -0.140  0.373E+01
 -0.130  0.377E+01
 -0.120  0.380E+01
 -0.110  0.384E+01
 -0.100  0.387E+01
 -0.090  0.389E+01
 -0.080  0.392E+01
 -0.070  0.394E+01
 -0.060  0.396E+01
 -0.050  0.398E+01
 -0.040  0.400E+01
 -0.030  0.401E+01
 -0.020  0.403E+01
 -0.010  0.403E+01
  0.000  0.404E+01
  0.010  0.404E+01
  0.020  0.404E+01
  0.030  0.404E+01
  0.040  0.403E+01
  0.050  0.402E+01
  0.060  0.400E+01
  0.070  0.399E+01
  0.080  0.397E+01
  0.090  0.395E+01
  0.100  0.393E+01
  0.110  0.390E+01
  0.120  0.387E+01
  0.130  0.384E+01
  0.140  0.382E+01
  0.150  0.378E+01
  0.160  0.375E+01
  0.170  0.371E+01
  0.180  0.368E+01
  0.190  0.364E+01
  0.200  0.361E+01
  0.210  0.357E+01
  0.220  0.354E+01
  0.230  0.350E+01
  0.240  0.346E+01
  0.250  0.343E+01
  0.260  0.340E+01
  0.270  0.336E+01
  0.280  0.333E+01
  0.290  0.330E+01
  0.300  0.327E+01
  0.310  0.324E+01
  0.320  0.321E+01
  0.330  0.318E+01
  0.340  0.315E+01
  0.350  0.313E+01
  0.360  0.310E+01
  0.370  0.308E+01
  0.380  0.305E+01
  0.390  0.303E+01
  0.400  0.301E+01
  0.410  0.299E+01
  0.420  0.297E+01
  0.430  0.295E+01
  0.440  0.293E+01
  0.450  0.291E+01
  0.460  0.289E+01
  0.470  0.287E+01
  0.480  0.285E+01
  0.490  0.284E+01
  0.500  0.282E+01
  0.510  0.280E+01
  0.520  0.277E+01
  0.530  0.276E+01
  0.540  0.274E+01
  0.550  0.272E+01
  0.560  0.271E+01
  0.570  0.269E+01
  0.580  0.267E+01
  0.590  0.266E+01
  0.600  0.265E+01
  0.610  0.264E+01
  0.620  0.263E+01
  0.630  0.262E+01
  0.640  0.262E+01
  0.650  0.261E+01
  0.660  0.261E+01
  0.670  0.262E+01
  0.680  0.262E+01
  0.690  0.264E+01
  0.700  0.265E+01
  0.710  0.266E+01
  0.720  0.268E+01
  0.730  0.270E+01
  0.740  0.273E+01
  0.750  0.275E+01
  0.760  0.278E+01
  0.770  0.281E+01
  0.780  0.285E+01
  0.790  0.288E+01
  0.800  0.291E+01
  0.810  0.295E+01
  0.820  0.298E+01
  0.830  0.302E+01
  0.840  0.306E+01
  0.850  0.309E+01
  0.860  0.312E+01
  0.870  0.315E+01
  0.880  0.318E+01
  0.890  0.321E+01
  0.900  0.324E+01
  0.910  0.327E+01
  0.920  0.329E+01
  0.930  0.331E+01
  0.940  0.333E+01
  0.950  0.335E+01
  0.960  0.337E+01
  0.970  0.338E+01
  0.980  0.339E+01
  0.990  0.340E+01
  1.000  0.342E+01
  1.010  0.343E+01
  1.020  0.344E+01
  1.030  0.345E+01
  1.040  0.345E+01
  1.050  0.346E+01
  1.060  0.347E+01
  1.070  0.347E+01
  1.080  0.348E+01
  1.090  0.348E+01
  1.100  0.350E+01
  1.110  0.349E+01
  1.120  0.350E+01
  1.130  0.351E+01
  1.140  0.352E+01
  1.150  0.353E+01
  1.160  0.353E+01
  1.170  0.354E+01
  1.180  0.355E+01
  1.190  0.355E+01
  1.200  0.356E+01
  1.210  0.357E+01
  1.220  0.358E+01
  1.230  0.357E+01
  1.240  0.358E+01
  1.250  0.359E+01
  1.260  0.358E+01
  1.270  0.358E+01
  1.280  0.357E+01
  1.290  0.357E+01
  1.300  0.356E+01
  1.310  0.355E+01
  1.320  0.353E+01
  1.330  0.352E+01
  1.340  0.349E+01
  1.350  0.347E+01
  1.360  0.344E+01
  1.370  0.341E+01
  1.380  0.338E+01
  1.390  0.335E+01
  1.400  0.331E+01
  1.410  0.328E+01
  1.420  0.324E+01
  1.430  0.320E+01
  1.440  0.316E+01
  1.450  0.312E+01
  1.460  0.308E+01
  1.470  0.304E+01
  1.480  0.300E+01
  1.490  0.296E+01
  1.500  0.292E+01
  1.510  0.289E+01
  1.520  0.285E+01
  1.530  0.282E+01
  1.540  0.279E+01
  1.550  0.276E+01
  1.560  0.273E+01
  1.570  0.270E+01
  1.580  0.268E+01
  1.590  0.265E+01
  1.600  0.262E+01
  1.610  0.260E+01
  1.620  0.258E+01
  1.630  0.256E+01
  1.640  0.253E+01
  1.650  0.251E+01
  1.660  0.249E+01
  1.670  0.247E+01
  1.680  0.245E+01
  1.690  0.242E+01
  1.700  0.240E+01
  1.710  0.238E+01
  1.720  0.235E+01
  1.730  0.233E+01
  1.740  0.230E+01
  1.750  0.228E+01
  1.760  0.225E+01
  1.770  0.223E+01
  1.780  0.221E+01
  1.790  0.218E+01
  1.800  0.216E+01
  1.810  0.214E+01
  1.820  0.212E+01
  1.830  0.210E+01
  1.840  0.208E+01
  1.850  0.207E+01
  1.860  0.205E+01
  1.870  0.204E+01
  1.880  0.203E+01
  1.890  0.202E+01
  1.900  0.201E+01
  1.910  0.201E+01
  1.920  0.200E+01
  1.930  0.200E+01
  1.940  0.200E+01
  1.950  0.200E+01
  1.960  0.200E+01
  1.970  0.200E+01
  1.980  0.200E+01
  1.990  0.201E+01
  2.000  0.201E+01
  2.010  0.202E+01
  2.020  0.202E+01
  2.030  0.203E+01
  2.040  0.204E+01
  2.050  0.204E+01
  2.060  0.205E+01
  2.070  0.206E+01
  2.080  0.207E+01
  2.090  0.208E+01
  2.100  0.209E+01
  2.110  0.210E+01
  2.120  0.211E+01
  2.130  0.212E+01
  2.140  0.213E+01
  2.150  0.214E+01
  2.160  0.215E+01
  2.170  0.217E+01
  2.180  0.219E+01
  2.190  0.220E+01
  2.200  0.223E+01
  2.210  0.225E+01
  2.220  0.227E+01
  2.230  0.230E+01
  2.240  0.233E+01
  2.250  0.236E+01
  2.260  0.239E+01
  2.270  0.243E+01
  2.280  0.246E+01
  2.290  0.251E+01
  2.300  0.254E+01
  2.310  0.259E+01
  2.320  0.264E+01
  2.330  0.268E+01
  2.340  0.274E+01
  2.350  0.279E+01
  2.360  0.284E+01
  2.370  0.290E+01
  2.380  0.295E+01
  2.390  0.300E+01
  2.400  0.306E+01
  2.410  0.311E+01
  2.420  0.316E+01
  2.430  0.322E+01
  2.440  0.327E+01
  2.450  0.332E+01
  2.460  0.336E+01
  2.470  0.341E+01
  2.480  0.346E+01
  2.490  0.351E+01
  2.500  0.355E+01
  2.510  0.359E+01
  2.520  0.364E+01
  2.530  0.368E+01
  2.540  0.373E+01
  2.550  0.376E+01
  2.560  0.381E+01
  2.570  0.385E+01
  2.580  0.389E+01
  2.590  0.393E+01
  2.600  0.398E+01
  2.610  0.403E+01
  2.620  0.407E+01
  2.630  0.412E+01
  2.640  0.416E+01
  2.650  0.421E+01
  2.660  0.425E+01
  2.670  0.430E+01
  2.680  0.434E+01
  2.690  0.439E+01
  2.700  0.443E+01
  2.710  0.447E+01
  2.720  0.451E+01
  2.730  0.454E+01
  2.740  0.458E+01
  2.750  0.461E+01
  2.760  0.463E+01
  2.770  0.465E+01
  2.780  0.467E+01
  2.790  0.467E+01
  2.800  0.468E+01
  2.810  0.468E+01
  2.820  0.467E+01
  2.830  0.466E+01
  2.840  0.464E+01
  2.850  0.463E+01
  2.860  0.460E+01
  2.870  0.458E+01
  2.880  0.454E+01
  2.890  0.451E+01
  2.900  0.447E+01
  2.910  0.443E+01
  2.920  0.439E+01
  2.930  0.435E+01
  2.940  0.431E+01
  2.950  0.426E+01
  2.960  0.422E+01
  2.970  0.419E+01
  2.980  0.415E+01
  2.990  0.411E+01
  3.000  0.408E+01
  3.010  0.405E+01
  3.020  0.403E+01
  3.030  0.400E+01
  3.040  0.398E+01
  3.050  0.397E+01
  3.060  0.395E+01
  3.070  0.395E+01
  3.080  0.395E+01
  3.090  0.394E+01
  3.100  0.395E+01
  3.110  0.396E+01
  3.120  0.396E+01
  3.130  0.398E+01
  3.140  0.400E+01
  3.150  0.401E+01
  3.160  0.403E+01
  3.170  0.405E+01
  3.180  0.408E+01
  3.190  0.410E+01
  3.200  0.413E+01
  3.210  0.416E+01
  3.220  0.419E+01
  3.230  0.422E+01
  3.240  0.424E+01
  3.250  0.427E+01
  3.260  0.430E+01
  3.270  0.433E+01
  3.280  0.436E+01
  3.290  0.438E+01
  3.300  0.441E+01
  3.310  0.443E+01
  3.320  0.444E+01
  3.330  0.447E+01
  3.340  0.449E+01
  3.350  0.451E+01
  3.360  0.452E+01
  3.370  0.454E+01
  3.380  0.455E+01
  3.390  0.457E+01
  3.400  0.457E+01
  3.410  0.458E+01
  3.420  0.459E+01
  3.430  0.460E+01
  3.440  0.459E+01
  3.450  0.459E+01
  3.460  0.459E+01
  3.470  0.459E+01
  3.480  0.458E+01
  3.490  0.457E+01
  3.500  0.456E+01
  3.510  0.455E+01
  3.520  0.454E+01
  3.530  0.452E+01
  3.540  0.450E+01
  3.550  0.447E+01
  3.560  0.445E+01
  3.570  0.442E+01
  3.580  0.438E+01
  3.590  0.435E+01
  3.600  0.431E+01
  3.610  0.428E+01
  3.620  0.424E+01
  3.630  0.420E+01
  3.640  0.416E+01
  3.650  0.412E+01
  3.660  0.408E+01
  3.670  0.404E+01
  3.680  0.400E+01
  3.690  0.396E+01
  3.700  0.392E+01
  3.710  0.389E+01
  3.720  0.386E+01
  3.730  0.383E+01
  3.740  0.380E+01
  3.750  0.378E+01
  3.760  0.376E+01
  3.770  0.374E+01
  3.780  0.373E+01
  3.790  0.372E+01
  3.800  0.371E+01
  3.810  0.371E+01
  3.820  0.371E+01
  3.830  0.371E+01
  3.840  0.371E+01
  3.850  0.372E+01
  3.860  0.372E+01
  3.870  0.374E+01
  3.880  0.375E+01
  3.890  0.376E+01
  3.900  0.377E+01
  3.910  0.378E+01
  3.920  0.380E+01
  3.930  0.381E+01
  3.940  0.382E+01
  3.950  0.383E+01
  3.960  0.384E+01
  3.970  0.385E+01
  3.980  0.386E+01
  3.990  0.387E+01
  4.000  0.388E+01
  4.010  0.388E+01
  4.020  0.389E+01
  4.030  0.390E+01
  4.040  0.391E+01
  4.050  0.393E+01
  4.060  0.394E+01
  4.070  0.395E+01
  4.080  0.398E+01
  4.090  0.399E+01
  4.100  0.401E+01
  4.110  0.404E+01
  4.120  0.406E+01
  4.130  0.409E+01
  4.140  0.412E+01
  4.150  0.415E+01
  4.160  0.418E+01
  4.170  0.423E+01
  4.180  0.426E+01
  4.190  0.429E+01
  4.200  0.434E+01
  4.210  0.438E+01
  4.220  0.441E+01
  4.230  0.445E+01
  4.240  0.449E+01
  4.250  0.453E+01
  4.260  0.456E+01
  4.270  0.460E+01
  4.280  0.463E+01
  4.290  0.465E+01
  4.300  0.468E+01
  4.310  0.471E+01
  4.320  0.473E+01
  4.330  0.476E+01
  4.340  0.477E+01
  4.350  0.479E+01
  4.360  0.481E+01
  4.370  0.482E+01
  4.380  0.483E+01
  4.390  0.483E+01
  4.400  0.485E+01
  4.410  0.485E+01
  4.420  0.486E+01
  4.430  0.487E+01
  4.440  0.487E+01
  4.450  0.487E+01
  4.460  0.488E+01
  4.470  0.489E+01
  4.480  0.489E+01
  4.490  0.489E+01
  4.500  0.490E+01
  4.510  0.491E+01
  4.520  0.492E+01
  4.530  0.493E+01
  4.540  0.494E+01
  4.550  0.495E+01
  4.560  0.496E+01
  4.570  0.498E+01
  4.580  0.499E+01
  4.590  0.500E+01
  4.600  0.503E+01
  4.610  0.504E+01
  4.620  0.506E+01
  4.630  0.508E+01
  4.640  0.511E+01
  4.650  0.513E+01
  4.660  0.515E+01
  4.670  0.517E+01
  4.680  0.519E+01
  4.690  0.522E+01
  4.700  0.525E+01
  4.710  0.527E+01
  4.720  0.530E+01
  4.730  0.531E+01
  4.740  0.533E+01
  4.750  0.535E+01
  4.760  0.538E+01
  4.770  0.539E+01
  4.780  0.540E+01
  4.790  0.542E+01
  4.800  0.542E+01
  4.810  0.542E+01
  4.820  0.543E+01
  4.830  0.543E+01
  4.840  0.543E+01
  4.850  0.543E+01
  4.860  0.541E+01
  4.870  0.541E+01
  4.880  0.540E+01
  4.890  0.539E+01
  4.900  0.538E+01
  4.910  0.536E+01
  4.920  0.535E+01
  4.930  0.533E+01
  4.940  0.532E+01
  4.950  0.530E+01
  4.960  0.530E+01
  4.970  0.528E+01
  4.980  0.527E+01
  4.990  0.527E+01
  5.000  0.526E+01
  5.010  0.526E+01
  5.020  0.526E+01
  5.030  0.526E+01
  5.040  0.526E+01
  5.050  0.527E+01
  5.060  0.528E+01
  5.070  0.530E+01
  5.080  0.531E+01
  5.090  0.532E+01
  5.100  0.534E+01
  5.110  0.535E+01
  5.120  0.537E+01
  5.130  0.538E+01
  5.140  0.540E+01
  5.150  0.542E+01
  5.160  0.544E+01
  5.170  0.544E+01
  5.180  0.546E+01
  5.190  0.546E+01
  5.200  0.547E+01
  5.210  0.546E+01
  5.220  0.547E+01
  5.230  0.547E+01
  5.240  0.546E+01
  5.250  0.545E+01
  5.260  0.544E+01
  5.270  0.543E+01
  5.280  0.542E+01
  5.290  0.540E+01
  5.300  0.538E+01
  5.310  0.537E+01
  5.320  0.535E+01
  5.330  0.533E+01
  5.340  0.531E+01
  5.350  0.529E+01
  5.360  0.527E+01
  5.370  0.526E+01
  5.380  0.524E+01
  5.390  0.522E+01
  5.400  0.520E+01
  5.410  0.519E+01
  5.420  0.517E+01
  5.430  0.516E+01
  5.440  0.514E+01
  5.450  0.513E+01
  5.460  0.511E+01
  5.470  0.510E+01
  5.480  0.508E+01
  5.490  0.507E+01
  5.500  0.504E+01
  5.510  0.503E+01
  5.520  0.500E+01
  5.530  0.498E+01
  5.540  0.496E+01
  5.550  0.493E+01
  5.560  0.490E+01
  5.570  0.487E+01
  5.580  0.484E+01
  5.590  0.480E+01
  5.600  0.477E+01
  5.610  0.473E+01
  5.620  0.470E+01
  5.630  0.466E+01
  5.640  0.463E+01
  5.650  0.459E+01
  5.660  0.456E+01
  5.670  0.454E+01
  5.680  0.452E+01
  5.690  0.449E+01
  5.700  0.447E+01
  5.710  0.447E+01
  5.720  0.446E+01
  5.730  0.445E+01
  5.740  0.446E+01
  5.750  0.446E+01
  5.760  0.448E+01
  5.770  0.450E+01
  5.780  0.453E+01
  5.790  0.456E+01
  5.800  0.459E+01
  5.810  0.463E+01
  5.820  0.468E+01
  5.830  0.472E+01
  5.840  0.477E+01
  5.850  0.482E+01
  5.860  0.488E+01
  5.870  0.494E+01
  5.880  0.499E+01
  5.890  0.505E+01
  5.900  0.510E+01
  5.910  0.516E+01
  5.920  0.522E+01
  5.930  0.526E+01
  5.940  0.532E+01
  5.950  0.536E+01
  5.960  0.541E+01
  5.970  0.545E+01
  5.980  0.550E+01
  5.990  0.553E+01
  6.000  0.556E+01
  6.010  0.558E+01
  6.020  0.560E+01
  6.030  0.562E+01
  6.040  0.563E+01
  6.050  0.564E+01
  6.060  0.563E+01
  6.070  0.563E+01
  6.080  0.562E+01
  6.090  0.560E+01
  6.100  0.559E+01
  6.110  0.557E+01
  6.120  0.554E+01
  6.130  0.551E+01
  6.140  0.548E+01
  6.150  0.544E+01
  6.160  0.540E+01
  6.170  0.535E+01
  6.180  0.531E+01
  6.190  0.526E+01
  6.200  0.521E+01
  6.210  0.515E+01
  6.220  0.509E+01
  6.230  0.503E+01
  6.240  0.497E+01
  6.250  0.491E+01
  6.260  0.485E+01
  6.270  0.478E+01
  6.280  0.471E+01
  6.290  0.464E+01
  6.300  0.458E+01
  6.310  0.451E+01
  6.320  0.443E+01
  6.330  0.436E+01
  6.340  0.429E+01
  6.350  0.423E+01
  6.360  0.415E+01
  6.370  0.408E+01
  6.380  0.401E+01
  6.390  0.394E+01
  6.400  0.387E+01
  6.410  0.381E+01
  6.420  0.375E+01
  6.430  0.369E+01
  6.440  0.362E+01
  6.450  0.356E+01
  6.460  0.351E+01
  6.470  0.346E+01
  6.480  0.341E+01
  6.490  0.337E+01
  6.500  0.332E+01
  6.510  0.329E+01
  6.520  0.326E+01
  6.530  0.323E+01
  6.540  0.321E+01
  6.550  0.320E+01
  6.560  0.319E+01
  6.570  0.318E+01
  6.580  0.318E+01
  6.590  0.319E+01
  6.600  0.320E+01
  6.610  0.322E+01
  6.620  0.324E+01
  6.630  0.327E+01
  6.640  0.331E+01
  6.650  0.334E+01
  6.660  0.339E+01
  6.670  0.344E+01
  6.680  0.349E+01
  6.690  0.355E+01
  6.700  0.362E+01
  6.710  0.368E+01
  6.720  0.375E+01
  6.730  0.381E+01
  6.740  0.389E+01
  6.750  0.396E+01
  6.760  0.403E+01
  6.770  0.411E+01
  6.780  0.418E+01
  6.790  0.426E+01
  6.800  0.433E+01
  6.810  0.440E+01
  6.820  0.447E+01
  6.830  0.454E+01
  6.840  0.460E+01
  6.850  0.466E+01
  6.860  0.472E+01
  6.870  0.479E+01
  6.880  0.484E+01
  6.890  0.489E+01
  6.900  0.493E+01
  6.910  0.498E+01
  6.920  0.502E+01
  6.930  0.505E+01
  6.940  0.509E+01
  6.950  0.512E+01
  6.960  0.515E+01
  6.970  0.518E+01
  6.980  0.520E+01
  6.990  0.523E+01
  7.000  0.524E+01
  7.010  0.526E+01
  7.020  0.527E+01
  7.030  0.528E+01
  7.040  0.530E+01
  7.050  0.530E+01
  7.060  0.531E+01
  7.070  0.531E+01
  7.080  0.532E+01
  7.090  0.531E+01
  7.100  0.530E+01
  7.110  0.530E+01
  7.120  0.529E+01
  7.130  0.528E+01
  7.140  0.525E+01
  7.150  0.524E+01
  7.160  0.521E+01
  7.170  0.518E+01
  7.180  0.515E+01
  7.190  0.511E+01
  7.200  0.507E+01
  7.210  0.502E+01
  7.220  0.497E+01
  7.230  0.492E+01
  7.240  0.486E+01
  7.250  0.479E+01
  7.260  0.473E+01
  7.270  0.465E+01
  7.280  0.458E+01
  7.290  0.450E+01
  7.300  0.441E+01
  7.310  0.433E+01
  7.320  0.424E+01
  7.330  0.415E+01
  7.340  0.406E+01
  7.350  0.397E+01
  7.360  0.387E+01
  7.370  0.377E+01
  7.380  0.368E+01
  7.390  0.359E+01
  7.400  0.350E+01
  7.410  0.341E+01
  7.420  0.332E+01
  7.430  0.324E+01
  7.440  0.316E+01
  7.450  0.308E+01
  7.460  0.301E+01
  7.470  0.294E+01
  7.480  0.288E+01
  7.490  0.282E+01
  7.500  0.276E+01
  7.510  0.272E+01
  7.520  0.267E+01
  7.530  0.263E+01
  7.540  0.260E+01
  7.550  0.257E+01
  7.560  0.254E+01
  7.570  0.251E+01
  7.580  0.249E+01
  7.590  0.247E+01
  7.600  0.246E+01
  7.610  0.244E+01
  7.620  0.243E+01
  7.630  0.241E+01
  7.640  0.240E+01
  7.650  0.239E+01
  7.660  0.237E+01
  7.670  0.235E+01
  7.680  0.234E+01
  7.690  0.231E+01
  7.700  0.229E+01
  7.710  0.227E+01
  7.720  0.224E+01
  7.730  0.221E+01
  7.740  0.217E+01
  7.750  0.214E+01
  7.760  0.210E+01
  7.770  0.206E+01
  7.780  0.202E+01
  7.790  0.197E+01
  7.800  0.193E+01
  7.810  0.188E+01
  7.820  0.184E+01
  7.830  0.179E+01
  7.840  0.175E+01
  7.850  0.170E+01
  7.860  0.166E+01
  7.870  0.162E+01
  7.880  0.158E+01
  7.890  0.154E+01
  7.900  0.150E+01
  7.910  0.147E+01
  7.920  0.143E+01
  7.930  0.140E+01
  7.940  0.137E+01
  7.950  0.135E+01
  7.960  0.132E+01
  7.970  0.130E+01
  7.980  0.128E+01
  7.990  0.126E+01
  8.000  0.125E+01
  8.010  0.123E+01
  8.020  0.122E+01
  8.030  0.120E+01
  8.040  0.119E+01
  8.050  0.118E+01
  8.060  0.117E+01
  8.070  0.116E+01
  8.080  0.115E+01
  8.090  0.114E+01
  8.100  0.112E+01
  8.110  0.111E+01
  8.120  0.110E+01
  8.130  0.109E+01
  8.140  0.107E+01
  8.150  0.106E+01
  8.160  0.104E+01
  8.170  0.103E+01
  8.180  0.102E+01
  8.190  0.999E+00
  8.200  0.983E+00
  8.210  0.965E+00
  8.220  0.949E+00
  8.230  0.931E+00
  8.240  0.913E+00
  8.250  0.896E+00
  8.260  0.878E+00
  8.270  0.860E+00
  8.280  0.842E+00
  8.290  0.824E+00
  8.300  0.807E+00
  8.310  0.790E+00
  8.320  0.774E+00
  8.330  0.757E+00
  8.340  0.742E+00
  8.350  0.727E+00
  8.360  0.713E+00
  8.370  0.698E+00
  8.380  0.685E+00
  8.390  0.673E+00
  8.400  0.662E+00
  8.410  0.651E+00
  8.420  0.642E+00
  8.430  0.634E+00
  8.440  0.625E+00
  8.450  0.618E+00
  8.460  0.612E+00
  8.470  0.607E+00
  8.480  0.602E+00
  8.490  0.598E+00
  8.500  0.594E+00
  8.510  0.591E+00
  8.520  0.588E+00
  8.530  0.586E+00
  8.540  0.584E+00
  8.550  0.582E+00
  8.560  0.581E+00
  8.570  0.579E+00
  8.580  0.578E+00
  8.590  0.577E+00
  8.600  0.575E+00
  8.610  0.573E+00
  8.620  0.572E+00
  8.630  0.571E+00
  8.640  0.569E+00
  8.650  0.567E+00
  8.660  0.565E+00
  8.670  0.563E+00
  8.680  0.560E+00
  8.690  0.558E+00
  8.700  0.556E+00
  8.710  0.553E+00
  8.720  0.550E+00
  8.730  0.547E+00
  8.740  0.544E+00
  8.750  0.540E+00
  8.760  0.537E+00
  8.770  0.534E+00
  8.780  0.530E+00
  8.790  0.527E+00
  8.800  0.523E+00
  8.810  0.518E+00
  8.820  0.515E+00
  8.830  0.511E+00
  8.840  0.506E+00
  8.850  0.503E+00
  8.860  0.498E+00
  8.870  0.494E+00
  8.880  0.489E+00
  8.890  0.485E+00
  8.900  0.481E+00
  8.910  0.477E+00
  8.920  0.472E+00
  8.930  0.468E+00
  8.940  0.464E+00
  8.950  0.460E+00
  8.960  0.456E+00
  8.970  0.453E+00
  8.980  0.449E+00
  8.990  0.447E+00
  9.000  0.444E+00
  9.010  0.441E+00
  9.020  0.438E+00
  9.030  0.436E+00
  9.040  0.434E+00
  9.050  0.432E+00
  9.060  0.430E+00
  9.070  0.429E+00
  9.080  0.427E+00
  9.090  0.425E+00
  9.100  0.422E+00
  9.110  0.420E+00
  9.120  0.418E+00
  9.130  0.415E+00
  9.140  0.413E+00
  9.150  0.409E+00
  9.160  0.407E+00
  9.170  0.404E+00
  9.180  0.400E+00
  9.190  0.396E+00
  9.200  0.391E+00
  9.210  0.387E+00
  9.220  0.383E+00
  9.230  0.378E+00
  9.240  0.374E+00
  9.250  0.369E+00
  9.260  0.364E+00
  9.270  0.359E+00
  9.280  0.354E+00
  9.290  0.349E+00
  9.300  0.345E+00
  9.310  0.341E+00
  9.320  0.337E+00
  9.330  0.333E+00
  9.340  0.329E+00
  9.350  0.326E+00
  9.360  0.324E+00
  9.370  0.322E+00
  9.380  0.320E+00
  9.390  0.318E+00
  9.400  0.317E+00
  9.410  0.316E+00
  9.420  0.315E+00
  9.430  0.314E+00
  9.440  0.312E+00
  9.450  0.313E+00
  9.460  0.312E+00
  9.470  0.312E+00
  9.480  0.311E+00
  9.490  0.310E+00
  9.500  0.310E+00
  9.510  0.309E+00
  9.520  0.307E+00
  9.530  0.306E+00
  9.540  0.305E+00
  9.550  0.303E+00
  9.560  0.301E+00
  9.570  0.299E+00
  9.580  0.297E+00
  9.590  0.295E+00
  9.600  0.291E+00
  9.610  0.289E+00
  9.620  0.286E+00
  9.630  0.283E+00
  9.640  0.280E+00
  9.650  0.277E+00
  9.660  0.274E+00
  9.670  0.271E+00
  9.680  0.268E+00
  9.690  0.265E+00
  9.700  0.263E+00
  9.710  0.261E+00
  9.720  0.258E+00
  9.730  0.256E+00
  9.740  0.254E+00
  9.750  0.253E+00
  9.760  0.251E+00
  9.770  0.250E+00
  9.780  0.249E+00
  9.790  0.248E+00
  9.800  0.248E+00
  9.810  0.248E+00
  9.820  0.248E+00
  9.830  0.248E+00
  9.840  0.248E+00
  9.850  0.249E+00
  9.860  0.249E+00
  9.870  0.250E+00
  9.880  0.251E+00
  9.890  0.252E+00
  9.900  0.254E+00
  9.910  0.255E+00
  9.920  0.257E+00
  9.930  0.258E+00
  9.940  0.259E+00
  9.950  0.261E+00
  9.960  0.263E+00
  9.970  0.265E+00
  9.980  0.266E+00
  9.990  0.268E+00
 10.000  0.270E+00
 10.010  0.271E+00
 10.020  0.271E+00
 10.030  0.273E+00
 10.040  0.274E+00
 10.050  0.275E+00
 10.060  0.275E+00
 10.070  0.276E+00
 10.080  0.276E+00
 10.090  0.276E+00
 10.100  0.276E+00
 10.110  0.275E+00
 10.120  0.274E+00
 10.130  0.273E+00
 10.140  0.273E+00
 10.150  0.272E+00
 10.160  0.270E+00
 10.170  0.269E+00
 10.180  0.267E+00
 10.190  0.265E+00
 10.200  0.263E+00
 10.210  0.262E+00
 10.220  0.259E+00
 10.230  0.257E+00
 10.240  0.256E+00
 10.250  0.254E+00
 10.260  0.253E+00
 10.270  0.250E+00
 10.280  0.249E+00
 10.290  0.248E+00
 10.300  0.246E+00
 10.310  0.245E+00
 10.320  0.244E+00
 10.330  0.242E+00
 10.340  0.241E+00
 10.350  0.240E+00
 10.360  0.239E+00
 10.370  0.238E+00
 10.380  0.237E+00
 10.390  0.235E+00
 10.400  0.234E+00
 10.410  0.233E+00
 10.420  0.232E+00
 10.430  0.231E+00
 10.440  0.229E+00
 10.450  0.228E+00
 10.460  0.227E+00
 10.470  0.225E+00
 10.480  0.224E+00
 10.490  0.222E+00
 10.500  0.220E+00
 10.510  0.219E+00
 10.520  0.217E+00
 10.530  0.216E+00
 10.540  0.214E+00
 10.550  0.213E+00
 10.560  0.211E+00
 10.570  0.210E+00
 10.580  0.209E+00
 10.590  0.208E+00
 10.600  0.207E+00
 10.610  0.206E+00
 10.620  0.206E+00
 10.630  0.205E+00
 10.640  0.205E+00
 10.650  0.205E+00
 10.660  0.204E+00
 10.670  0.205E+00
 10.680  0.205E+00
 10.690  0.205E+00
 10.700  0.206E+00
 10.710  0.206E+00
 10.720  0.207E+00
 10.730  0.208E+00
 10.740  0.209E+00
 10.750  0.209E+00
 10.760  0.210E+00
 10.770  0.212E+00
 10.780  0.213E+00
 10.790  0.214E+00
 10.800  0.215E+00
 10.810  0.217E+00
 10.820  0.218E+00
 10.830  0.220E+00
 10.840  0.222E+00
 10.850  0.223E+00
 10.860  0.225E+00
 10.870  0.227E+00
 10.880  0.229E+00
 10.890  0.231E+00
 10.900  0.233E+00
 10.910  0.235E+00
 10.920  0.237E+00
 10.930  0.240E+00
 10.940  0.242E+00
 10.950  0.244E+00
 10.960  0.247E+00
 10.970  0.250E+00
 10.980  0.253E+00
 10.990  0.256E+00
 11.000  0.259E+00
 11.010  0.261E+00
 11.020  0.265E+00
 11.030  0.268E+00
 11.040  0.271E+00
 11.050  0.275E+00
 11.060  0.278E+00
 11.070  0.282E+00
 11.080  0.285E+00
 11.090  0.288E+00
 11.100  0.291E+00
 11.110  0.295E+00
 11.120  0.299E+00
 11.130  0.302E+00
 11.140  0.305E+00
 11.150  0.308E+00
 11.160  0.312E+00
 11.170  0.315E+00
 11.180  0.318E+00
 11.190  0.321E+00
 11.200  0.324E+00
 11.210  0.328E+00
 11.220  0.330E+00
 11.230  0.333E+00
 11.240  0.336E+00
 11.250  0.338E+00
 11.260  0.341E+00
 11.270  0.344E+00
 11.280  0.346E+00
 11.290  0.348E+00
 11.300  0.350E+00
 11.310  0.352E+00
 11.320  0.354E+00
 11.330  0.356E+00
 11.340  0.357E+00
 11.350  0.358E+00
 11.360  0.359E+00
 11.370  0.360E+00
 11.380  0.360E+00
 11.390  0.361E+00
 11.400  0.361E+00
 11.410  0.361E+00
 11.420  0.361E+00
 11.430  0.361E+00
 11.440  0.361E+00
 11.450  0.361E+00
 11.460  0.360E+00
 11.470  0.360E+00
 11.480  0.360E+00
 11.490  0.359E+00
 11.500  0.359E+00
 11.510  0.359E+00
 11.520  0.359E+00
 11.530  0.360E+00
 11.540  0.360E+00
 11.550  0.361E+00
 11.560  0.362E+00
 11.570  0.363E+00
 11.580  0.366E+00
 11.590  0.368E+00
 11.600  0.370E+00
 11.610  0.373E+00
 11.620  0.376E+00
 11.630  0.380E+00
 11.640  0.383E+00
 11.650  0.387E+00
 11.660  0.392E+00
 11.670  0.396E+00
 11.680  0.401E+00
 11.690  0.405E+00
 11.700  0.410E+00
 11.710  0.415E+00
 11.720  0.420E+00
 11.730  0.425E+00
 11.740  0.429E+00
 11.750  0.434E+00
 11.760  0.438E+00
 11.770  0.442E+00
 11.780  0.445E+00
 11.790  0.449E+00
 11.800  0.452E+00
 11.810  0.455E+00
 11.820  0.458E+00
 11.830  0.460E+00
 11.840  0.462E+00
 11.850  0.462E+00
 11.860  0.464E+00
 11.870  0.464E+00
 11.880  0.465E+00
 11.890  0.465E+00
 11.900  0.465E+00
 11.910  0.465E+00
 11.920  0.465E+00
 11.930  0.464E+00
 11.940  0.463E+00
 11.950  0.462E+00
 11.960  0.460E+00
 11.970  0.460E+00
 11.980  0.458E+00
 11.990  0.457E+00
 12.000  0.455E+00
 12.010  0.454E+00
 12.020  0.453E+00
 12.030  0.452E+00
 12.040  0.451E+00
 12.050  0.450E+00
 12.060  0.450E+00
 12.070  0.449E+00
 12.080  0.448E+00
 12.090  0.448E+00
 12.100  0.448E+00
 12.110  0.449E+00
 12.120  0.449E+00
 12.130  0.449E+00
 12.140  0.450E+00
 12.150  0.451E+00
 12.160  0.453E+00
 12.170  0.453E+00
 12.180  0.455E+00
 12.190  0.457E+00
 12.200  0.459E+00
 12.210  0.461E+00
 12.220  0.464E+00
 12.230  0.466E+00
 12.240  0.468E+00
 12.250  0.471E+00
 12.260  0.474E+00
 12.270  0.477E+00
 12.280  0.482E+00
 12.290  0.485E+00
 12.300  0.489E+00
 12.310  0.492E+00
 12.320  0.497E+00
 12.330  0.501E+00
 12.340  0.506E+00
 12.350  0.512E+00
 12.360  0.518E+00
 12.370  0.524E+00
 12.380  0.531E+00
 12.390  0.539E+00
 12.400  0.547E+00
 12.410  0.556E+00
 12.420  0.565E+00
 12.430  0.576E+00
 12.440  0.586E+00
 12.450  0.598E+00
 12.460  0.611E+00
 12.470  0.626E+00
 12.480  0.640E+00
 12.490  0.655E+00
 12.500  0.672E+00
 12.510  0.690E+00
 12.520  0.708E+00
 12.530  0.726E+00
 12.540  0.747E+00
 12.550  0.768E+00
 12.560  0.791E+00
 12.570  0.812E+00
 12.580  0.836E+00
 12.590  0.859E+00
 12.600  0.883E+00
 12.610  0.907E+00
 12.620  0.932E+00
 12.630  0.957E+00
 12.640  0.982E+00
 12.650  0.101E+01
 12.660  0.103E+01
 12.670  0.106E+01
 12.680  0.108E+01
 12.690  0.111E+01
 12.700  0.113E+01
 12.710  0.116E+01
 12.720  0.118E+01
 12.730  0.120E+01
 12.740  0.123E+01
 12.750  0.125E+01
 12.760  0.127E+01
 12.770  0.129E+01
 12.780  0.131E+01
 12.790  0.133E+01
 12.800  0.135E+01
 12.810  0.137E+01
 12.820  0.139E+01
 12.830  0.140E+01
 12.840  0.142E+01
 12.850  0.143E+01
 12.860  0.145E+01
 12.870  0.146E+01
 12.880  0.147E+01
 12.890  0.149E+01
 12.900  0.150E+01
 12.910  0.151E+01
 12.920  0.152E+01
 12.930  0.153E+01
 12.940  0.154E+01
 12.950  0.155E+01
 12.960  0.156E+01
 12.970  0.157E+01
 12.980  0.158E+01
 12.990  0.158E+01
 13.000  0.159E+01
 13.010  0.160E+01
 13.020  0.161E+01
 13.030  0.161E+01
 13.040  0.162E+01
 13.050  0.163E+01
 13.060  0.163E+01
 13.070  0.164E+01
 13.080  0.164E+01
 13.090  0.164E+01
 13.100  0.165E+01
 13.110  0.165E+01
 13.120  0.165E+01
 13.130  0.166E+01
 13.140  0.166E+01
 13.150  0.166E+01
 13.160  0.166E+01
 13.170  0.166E+01
 13.180  0.166E+01
 13.190  0.165E+01
 13.200  0.165E+01
 13.210  0.165E+01
 13.220  0.164E+01
 13.230  0.164E+01
 13.240  0.163E+01
 13.250  0.162E+01
 13.260  0.161E+01
 13.270  0.161E+01
 13.280  0.160E+01
 13.290  0.158E+01
 13.300  0.157E+01
 13.310  0.156E+01
 13.320  0.155E+01
 13.330  0.153E+01
 13.340  0.152E+01
 13.350  0.150E+01
 13.360  0.149E+01
 13.370  0.147E+01
 13.380  0.145E+01
 13.390  0.144E+01
 13.400  0.142E+01
 13.410  0.140E+01
 13.420  0.137E+01
 13.430  0.135E+01
 13.440  0.133E+01
 13.450  0.131E+01
 13.460  0.129E+01
 13.470  0.127E+01
 13.480  0.124E+01
 13.490  0.122E+01
 13.500  0.120E+01
 13.510  0.117E+01
 13.520  0.115E+01
 13.530  0.113E+01
 13.540  0.111E+01
 13.550  0.108E+01
 13.560  0.106E+01
 13.570  0.104E+01
 13.580  0.102E+01
 13.590  0.997E+00
 13.600  0.977E+00
 13.610  0.957E+00
 13.620  0.938E+00
 13.630  0.919E+00
 13.640  0.901E+00
 13.650  0.882E+00
 13.660  0.867E+00
 13.670  0.848E+00
 13.680  0.832E+00
 13.690  0.817E+00
 13.700  0.802E+00
 13.710  0.786E+00
 13.720  0.772E+00
 13.730  0.759E+00
 13.740  0.745E+00
 13.750  0.733E+00
 13.760  0.721E+00
 13.770  0.709E+00
 13.780  0.698E+00
 13.790  0.687E+00
 13.800  0.678E+00
 13.810  0.668E+00
 13.820  0.661E+00
 13.830  0.653E+00
 13.840  0.645E+00
 13.850  0.638E+00
 13.860  0.632E+00
 13.870  0.627E+00
 13.880  0.623E+00
 13.890  0.620E+00
 13.900  0.616E+00
 13.910  0.613E+00
 13.920  0.611E+00
 13.930  0.610E+00
 13.940  0.609E+00
 13.950  0.609E+00
 13.960  0.609E+00
 13.970  0.610E+00
 13.980  0.611E+00
 13.990  0.613E+00
 14.000  0.615E+00
 14.010  0.618E+00
 14.020  0.620E+00
 14.030  0.623E+00
 14.040  0.627E+00
 14.050  0.629E+00
 14.060  0.634E+00
 14.070  0.637E+00
 14.080  0.641E+00
 14.090  0.645E+00
 14.100  0.650E+00
 14.110  0.654E+00
 14.120  0.658E+00
 14.130  0.663E+00
 14.140  0.668E+00
 14.150  0.671E+00
 14.160  0.676E+00
 14.170  0.679E+00
 14.180  0.683E+00
 14.190  0.688E+00
 14.200  0.690E+00
 14.210  0.694E+00
 14.220  0.698E+00
 14.230  0.700E+00
 14.240  0.703E+00
 14.250  0.705E+00
 14.260  0.707E+00
 14.270  0.709E+00
 14.280  0.710E+00
 14.290  0.711E+00
 14.300  0.711E+00
 14.310  0.711E+00
 14.320  0.711E+00
 14.330  0.711E+00
 14.340  0.710E+00
 14.350  0.709E+00
 14.360  0.708E+00
 14.370  0.707E+00
 14.380  0.704E+00
 14.390  0.703E+00
 14.400  0.700E+00
 14.410  0.698E+00
 14.420  0.695E+00
 14.430  0.694E+00
 14.440  0.692E+00
 14.450  0.689E+00
 14.460  0.687E+00
 14.470  0.685E+00
 14.480  0.683E+00
 14.490  0.681E+00
 14.500  0.679E+00
 14.510  0.676E+00
 14.520  0.676E+00
 14.530  0.674E+00
 14.540  0.672E+00
 14.550  0.672E+00
 14.560  0.671E+00
 14.570  0.670E+00
 14.580  0.669E+00
 14.590  0.668E+00
 14.600  0.667E+00
 14.610  0.666E+00
 14.620  0.666E+00
 14.630  0.664E+00
 14.640  0.664E+00
 14.650  0.664E+00
 14.660  0.662E+00
 14.670  0.661E+00
 14.680  0.661E+00
 14.690  0.661E+00
 14.700  0.660E+00
 14.710  0.661E+00
 14.720  0.660E+00
 14.730  0.660E+00
 14.740  0.659E+00
 14.750  0.659E+00
 14.760  0.660E+00
 14.770  0.660E+00
 14.780  0.662E+00
 14.790  0.663E+00
 14.800  0.664E+00
 14.810  0.666E+00
 14.820  0.668E+00
 14.830  0.670E+00
 14.840  0.673E+00
 14.850  0.677E+00
 14.860  0.680E+00
 14.870  0.683E+00
 14.880  0.687E+00
 14.890  0.691E+00
 14.900  0.695E+00
 14.910  0.701E+00
 14.920  0.705E+00
 14.930  0.711E+00
 14.940  0.716E+00
 14.950  0.721E+00
 14.960  0.726E+00
 14.970  0.731E+00
 14.980  0.736E+00
 14.990  0.741E+00
 15.000  0.745E+00
 15.010  0.750E+00
 15.020  0.755E+00
 15.030  0.758E+00
 15.040  0.762E+00
 15.050  0.766E+00
 15.060  0.770E+00
 15.070  0.772E+00
 15.080  0.775E+00
 15.090  0.777E+00
 15.100  0.780E+00
 15.110  0.782E+00
 15.120  0.783E+00
 15.130  0.785E+00
 15.140  0.785E+00
 15.150  0.786E+00
 15.160  0.786E+00
 15.170  0.786E+00
 15.180  0.786E+00
 15.190  0.786E+00
 15.200  0.784E+00
 15.210  0.783E+00
 15.220  0.781E+00
 15.230  0.779E+00
 15.240  0.777E+00
 15.250  0.775E+00
 15.260  0.771E+00
 15.270  0.768E+00
 15.280  0.763E+00
 15.290  0.759E+00
 15.300  0.754E+00
 15.310  0.749E+00
 15.320  0.743E+00
 15.330  0.736E+00
 15.340  0.729E+00
 15.350  0.721E+00
 15.360  0.712E+00
 15.370  0.704E+00
 15.380  0.695E+00
 15.390  0.684E+00
 15.400  0.674E+00
 15.410  0.663E+00
 15.420  0.652E+00
 15.430  0.642E+00
 15.440  0.630E+00
 15.450  0.618E+00
 15.460  0.606E+00
 15.470  0.594E+00
 15.480  0.581E+00
 15.490  0.569E+00
 15.500  0.557E+00
 15.510  0.546E+00
 15.520  0.534E+00
 15.530  0.524E+00
 15.540  0.513E+00
 15.550  0.502E+00
 15.560  0.492E+00
 15.570  0.483E+00
 15.580  0.474E+00
 15.590  0.465E+00
 15.600  0.457E+00
 15.610  0.449E+00
 15.620  0.442E+00
 15.630  0.437E+00
 15.640  0.430E+00
 15.650  0.425E+00
 15.660  0.420E+00
 15.670  0.416E+00
 15.680  0.412E+00
 15.690  0.409E+00
 15.700  0.406E+00
 15.710  0.404E+00
 15.720  0.401E+00
 15.730  0.399E+00
 15.740  0.398E+00
 15.750  0.396E+00
 15.760  0.396E+00
 15.770  0.395E+00
 15.780  0.394E+00
 15.790  0.394E+00
 15.800  0.394E+00
 15.810  0.393E+00
 15.820  0.393E+00
 15.830  0.394E+00
 15.840  0.394E+00
 15.850  0.394E+00
 15.860  0.394E+00
 15.870  0.394E+00
 15.880  0.394E+00
 15.890  0.394E+00
 15.900  0.393E+00
 15.910  0.393E+00
 15.920  0.392E+00
 15.930  0.392E+00
 15.940  0.391E+00
 15.950  0.390E+00
 15.960  0.389E+00
 15.970  0.388E+00
 15.980  0.387E+00
 15.990  0.387E+00
 16.000  0.386E+00
 16.010  0.384E+00
 16.020  0.383E+00
 16.030  0.382E+00
 16.040  0.382E+00
 16.050  0.381E+00
 16.060  0.380E+00
 16.070  0.380E+00
 16.080  0.379E+00
 16.090  0.379E+00
 16.100  0.379E+00
 16.110  0.379E+00
 16.120  0.379E+00
 16.130  0.378E+00
 16.140  0.379E+00
 16.150  0.379E+00
 16.160  0.380E+00
 16.170  0.380E+00
 16.180  0.380E+00
 16.190  0.381E+00
 16.200  0.381E+00
 16.210  0.380E+00
 16.220  0.380E+00
 16.230  0.380E+00
 16.240  0.379E+00
 16.250  0.379E+00
 16.260  0.377E+00
 16.270  0.376E+00
 16.280  0.374E+00
 16.290  0.372E+00
 16.300  0.369E+00
 16.310  0.366E+00
 16.320  0.363E+00
 16.330  0.359E+00
 16.340  0.355E+00
 16.350  0.351E+00
 16.360  0.346E+00
 16.370  0.341E+00
 16.380  0.336E+00
 16.390  0.330E+00
 16.400  0.325E+00
 16.410  0.319E+00
 16.420  0.313E+00
 16.430  0.307E+00
 16.440  0.301E+00
 16.450  0.295E+00
 16.460  0.290E+00
 16.470  0.284E+00
 16.480  0.278E+00
 16.490  0.273E+00
 16.500  0.267E+00
 16.510  0.262E+00
 16.520  0.257E+00
 16.530  0.252E+00
 16.540  0.248E+00
 16.550  0.243E+00
 16.560  0.239E+00
 16.570  0.235E+00
 16.580  0.231E+00
 16.590  0.227E+00
 16.600  0.223E+00
 16.610  0.219E+00
 16.620  0.216E+00
 16.630  0.212E+00
 16.640  0.209E+00
 16.650  0.205E+00
 16.660  0.202E+00
 16.670  0.199E+00
 16.680  0.196E+00
 16.690  0.193E+00
 16.700  0.189E+00
 16.710  0.186E+00
 16.720  0.183E+00
 16.730  0.180E+00
 16.740  0.177E+00
 16.750  0.174E+00
 16.760  0.171E+00
 16.770  0.169E+00
 16.780  0.166E+00
 16.790  0.163E+00
 16.800  0.161E+00
 16.810  0.158E+00
 16.820  0.156E+00
 16.830  0.153E+00
 16.840  0.151E+00
 16.850  0.149E+00
 16.860  0.147E+00
 16.870  0.146E+00
 16.880  0.144E+00
 16.890  0.143E+00
 16.900  0.141E+00
 16.910  0.140E+00
 16.920  0.139E+00
 16.930  0.138E+00
 16.940  0.137E+00
 16.950  0.137E+00
 16.960  0.136E+00
 16.970  0.136E+00
 16.980  0.135E+00
 16.990  0.135E+00
 17.000  0.135E+00
 17.010  0.135E+00
 17.020  0.135E+00
 17.030  0.135E+00
 17.040  0.134E+00
 17.050  0.134E+00
 17.060  0.134E+00
 17.070  0.134E+00
 17.080  0.134E+00
 17.090  0.134E+00
 17.100  0.133E+00
 17.110  0.133E+00
 17.120  0.133E+00
 17.130  0.132E+00
 17.140  0.132E+00
 17.150  0.131E+00
 17.160  0.131E+00
 17.170  0.130E+00
 17.180  0.130E+00
 17.190  0.129E+00
 17.200  0.129E+00
 17.210  0.128E+00
 17.220  0.127E+00
 17.230  0.127E+00
 17.240  0.126E+00
 17.250  0.126E+00
 17.260  0.125E+00
 17.270  0.125E+00
 17.280  0.124E+00
 17.290  0.124E+00
 17.300  0.123E+00
 17.310  0.123E+00
 17.320  0.123E+00
 17.330  0.122E+00
 17.340  0.122E+00
 17.350  0.122E+00
 17.360  0.122E+00
 17.370  0.122E+00
 17.380  0.122E+00
 17.390  0.122E+00
 17.400  0.122E+00
 17.410  0.122E+00
 17.420  0.122E+00
 17.430  0.122E+00
 17.440  0.122E+00
 17.450  0.122E+00
 17.460  0.122E+00
 17.470  0.121E+00
 17.480  0.121E+00
 17.490  0.121E+00
 17.500  0.121E+00
 17.510  0.120E+00
 17.520  0.120E+00
 17.530  0.120E+00
 17.540  0.119E+00
 17.550  0.119E+00
 17.560  0.118E+00
 17.570  0.117E+00
 17.580  0.117E+00
 17.590  0.116E+00
 17.600  0.115E+00
 17.610  0.114E+00
 17.620  0.113E+00
 17.630  0.112E+00
 17.640  0.111E+00
 17.650  0.110E+00
 17.660  0.109E+00
 17.670  0.108E+00
 17.680  0.107E+00
 17.690  0.106E+00
 17.700  0.105E+00
 17.710  0.104E+00
 17.720  0.103E+00
 17.730  0.102E+00
 17.740  0.101E+00
 17.750  0.999E-01
 17.760  0.990E-01
 17.770  0.981E-01
 17.780  0.971E-01
 17.790  0.963E-01
 17.800  0.955E-01
 17.810  0.947E-01
 17.820  0.940E-01
 17.830  0.933E-01
 17.840  0.927E-01
 17.850  0.921E-01
 17.860  0.915E-01
 17.870  0.910E-01
 17.880  0.906E-01
 17.890  0.901E-01
 17.900  0.898E-01
 17.910  0.895E-01
 17.920  0.892E-01
 17.930  0.889E-01
 17.940  0.886E-01
 17.950  0.883E-01
 17.960  0.880E-01
 17.970  0.878E-01
 17.980  0.876E-01
 17.990  0.873E-01
 18.000  0.870E-01
 18.010  0.867E-01
 18.020  0.863E-01
 18.030  0.859E-01
 18.040  0.855E-01
 18.050  0.850E-01
 18.060  0.844E-01
 18.070  0.840E-01
 18.080  0.833E-01
 18.090  0.826E-01
 18.100  0.818E-01
 18.110  0.811E-01
 18.120  0.802E-01
 18.130  0.792E-01
 18.140  0.784E-01
 18.150  0.774E-01
 18.160  0.763E-01
 18.170  0.752E-01
 18.180  0.742E-01
 18.190  0.731E-01
 18.200  0.719E-01
 18.210  0.708E-01
 18.220  0.697E-01
 18.230  0.686E-01
 18.240  0.674E-01
 18.250  0.662E-01
 18.260  0.652E-01
 18.270  0.641E-01
 18.280  0.631E-01
 18.290  0.621E-01
 18.300  0.612E-01
 18.310  0.604E-01
 18.320  0.595E-01
 18.330  0.588E-01
 18.340  0.582E-01
 18.350  0.576E-01
 18.360  0.570E-01
 18.370  0.566E-01
 18.380  0.562E-01
 18.390  0.559E-01
 18.400  0.557E-01
 18.410  0.555E-01
 18.420  0.555E-01
 18.430  0.555E-01
 18.440  0.556E-01
 18.450  0.558E-01
 18.460  0.559E-01
 18.470  0.562E-01
 18.480  0.565E-01
 18.490  0.569E-01
 18.500  0.572E-01
 18.510  0.576E-01
 18.520  0.580E-01
 18.530  0.585E-01
 18.540  0.590E-01
 18.550  0.594E-01
 18.560  0.599E-01
 18.570  0.602E-01
 18.580  0.607E-01
 18.590  0.610E-01
 18.600  0.614E-01
 18.610  0.617E-01
 18.620  0.620E-01
 18.630  0.621E-01
 18.640  0.623E-01
 18.650  0.624E-01
 18.660  0.625E-01
 18.670  0.624E-01
 18.680  0.624E-01
 18.690  0.623E-01
 18.700  0.622E-01
 18.710  0.619E-01
 18.720  0.617E-01
 18.730  0.613E-01
 18.740  0.609E-01
 18.750  0.606E-01
 18.760  0.600E-01
 18.770  0.596E-01
 18.780  0.590E-01
 18.790  0.584E-01
 18.800  0.578E-01
 18.810  0.570E-01
 18.820  0.563E-01
 18.830  0.555E-01
 18.840  0.546E-01
 18.850  0.538E-01
 18.860  0.528E-01
 18.870  0.517E-01
 18.880  0.507E-01
 18.890  0.496E-01
 18.900  0.483E-01
 18.910  0.472E-01
 18.920  0.458E-01
 18.930  0.445E-01
 18.940  0.431E-01
 18.950  0.416E-01
 18.960  0.401E-01
 18.970  0.386E-01
 18.980  0.370E-01
 18.990  0.354E-01
 19.000  0.338E-01
 19.010  0.322E-01
 19.020  0.305E-01
 19.030  0.289E-01
 19.040  0.272E-01
 19.050  0.256E-01
 19.060  0.240E-01
 19.070  0.224E-01
 19.080  0.209E-01
 19.090  0.194E-01
 19.100  0.179E-01
 19.110  0.165E-01
 19.120  0.152E-01
 19.130  0.139E-01
 19.140  0.127E-01
 19.150  0.115E-01
 19.160  0.104E-01
 19.170  0.942E-02
 19.180  0.845E-02
 19.190  0.757E-02
 19.200  0.676E-02
 19.210  0.600E-02
 19.220  0.531E-02
 19.230  0.468E-02
 19.240  0.411E-02
 19.250  0.360E-02
 19.260  0.313E-02
 19.270  0.272E-02
 19.280  0.235E-02
 19.290  0.202E-02
 19.300  0.173E-02
 19.310  0.148E-02
 19.320  0.126E-02
 19.330  0.106E-02
 19.340  0.895E-03
 19.350  0.751E-03
 19.360  0.627E-03
 19.370  0.522E-03
 19.380  0.432E-03
 19.390  0.356E-03
 19.400  0.293E-03
 19.410  0.239E-03
 19.420  0.194E-03
 19.430  0.158E-03
 19.440  0.127E-03
 19.450  0.102E-03
 19.460  0.815E-04
 19.470  0.649E-04
 19.480  0.514E-04
 19.490  0.405E-04
 19.500  0.318E-04
 19.510  0.249E-04
 19.520  0.193E-04
 19.530  0.150E-04
 19.540  0.115E-04
 19.550  0.886E-05
 19.560  0.677E-05
 19.570  0.514E-05
 19.580  0.389E-05
 19.590  0.293E-05
 19.600  0.220E-05
 19.610  0.164E-05
 19.620  0.122E-05
 19.630  0.900E-06
 19.640  0.662E-06
 19.650  0.485E-06
 19.660  0.354E-06
